Data from Ink_Intensity_USB4F045381__70__00070.txt Node

Date: Mon Jul 17 10:38:03 EDT 2023
User: mmckonesweet
Spectrometer: USB4F04538
Trigger mode: 4
Integration Time (sec): 9.000000E-1
Scans to average: 1
Electric dark correction enabled: true
Nonlinearity correction enabled: false
Boxcar width: 0
XAxis mode: Wavelengths
Number of Pixels in Spectrum: 3648
>>>>>Begin Spectral Data<<<<<
345.52	-1051.97
345.736	-1051.97
345.952	-1051.97
346.168	-1101.12
346.384	-1043.78
346.6	-189.78
346.816	-212.31
347.032	-218.45
347.248	242.34
347.464	-148.82
347.68	-114
347.896	64.17
348.112	404.13
348.328	-62.8
348.544	-136.53
348.76	94.89
348.975	277.16
349.191	-273.75
349.407	-249.17
349.623	-30.04
349.839	-54.61
350.055	-128.34
350.27	64.17
350.486	76.46
350.702	236.2
350.918	158.38
351.133	-341.33
351.349	33.45
351.565	412.32
351.781	-365.9
351.996	-68.95
352.212	209.58
352.428	-177.49
352.644	-296.27
352.859	-245.07
353.075	207.53
353.291	80.55
353.506	-181.59
353.722	-357.71
353.938	-103.76
354.153	402.08
354.369	105.13
354.584	-337.23
354.8	228.01
355.016	-333.14
355.231	-288.08
355.447	-85.33
355.662	141.99
355.878	772.77
356.093	-398.67
356.309	-132.44
356.524	-322.9
356.74	273.06
356.955	-251.22
357.171	-99.67
357.386	115.37
357.602	-255.31
357.817	-165.2
358.033	-206.16
358.248	334.5
358.464	88.75
358.679	-179.54
358.895	-372.05
359.11	-66.9
359.325	289.45
359.541	109.22
359.756	-34.13
359.972	-345.42
360.187	160.42
360.402	-286.03
360.618	-226.64
360.833	952.99
361.048	137.9
361.264	-214.35
361.479	-144.72
361.694	10.92
361.909	148.14
362.125	-296.27
362.34	-103.76
362.555	252.58
362.77	47.79
362.986	-329.04
363.201	-171.35
363.416	211.62
363.631	-71
363.847	-296.27
364.062	-191.83
364.277	137.9
364.492	0.68
364.707	-173.39
364.922	-400.72
365.138	225.96
365.353	322.21
365.568	-214.35
365.783	-191.83
365.998	64.17
366.213	410.28
366.428	-243.03
366.643	-17.75
366.858	174.76
367.073	180.9
367.288	-177.49
367.503	-300.37
367.718	-11.61
367.933	301.73
368.148	-355.66
368.363	-103.76
368.578	-126.29
368.793	422.56
369.008	-187.73
369.223	-345.42
369.438	127.66
369.653	346.79
369.868	-333.14
370.083	-304.46
370.298	43.69
370.513	283.3
370.728	8.87
370.943	-230.74
371.157	-210.26
371.372	531.11
371.587	-380.24
371.802	-345.42
372.017	55.98
372.232	430.76
372.446	-136.53
372.661	-265.55
372.876	119.46
373.091	64.17
373.306	-181.59
373.52	-306.51
373.735	-212.31
373.95	275.11
374.165	-150.87
374.379	-120.15
374.594	-222.55
374.809	76.46
375.023	-54.61
375.238	-308.56
375.453	166.57
375.667	-353.62
375.882	-224.59
376.097	-226.64
376.311	-64.85
376.526	-25.94
376.741	-220.5
376.955	64.17
377.17	494.24
377.384	477.86
377.599	-144.72
377.813	-298.32
378.028	623.27
378.242	166.57
378.457	-107.86
378.672	-357.71
378.886	-87.38
379.101	-118.1
379.315	-427.34
379.53	-236.88
379.744	144.04
379.958	115.37
380.173	-197.97
380.387	-243.03
380.602	133.8
380.816	-142.68
381.031	-283.99
381.245	-200.02
381.459	123.56
381.674	2769.54
381.888	-279.89
382.103	-13.65
382.317	-226.64
382.531	359.08
382.746	-66.9
382.96	-257.36
383.174	-154.96
383.388	465.57
383.603	-3.41
383.817	-290.13
384.031	60.07
384.246	465.57
384.46	-109.91
384.674	283.3
384.888	-77.14
385.103	-48.47
385.317	-298.32
385.531	-62.8
385.745	318.12
385.959	221.86
386.174	-304.46
386.388	-341.33
386.602	-109.91
386.816	-193.87
387.03	-161.11
387.244	-114
387.458	84.65
387.672	281.25
387.887	-312.66
388.101	-365.9
388.315	342.69
388.529	49.83
388.743	-185.68
388.957	-302.42
389.171	246.44
389.385	-214.35
389.599	-163.15
389.813	70.31
390.027	78.51
390.241	572.07
390.455	-169.3
390.669	-165.2
390.883	-99.67
391.097	309.93
391.311	49.83
391.525	-251.22
391.738	137.9
391.952	168.62
392.166	-132.44
392.38	-257.36
392.594	217.77
392.808	209.58
393.022	-109.91
393.236	-171.35
393.449	180.9
393.663	156.33
393.877	-324.94
394.091	-206.16
394.305	-99.67
394.518	-101.72
394.732	-382.29
394.946	-216.4
395.16	420.52
395.373	144.04
395.587	-292.18
395.801	-296.27
396.015	240.3
396.228	127.66
396.442	-386.38
396.656	-415.06
396.869	273.06
397.083	330.41
397.297	-64.85
397.51	-193.87
397.724	328.36
397.938	94.89
398.151	-410.96
398.365	-339.28
398.578	228.01
398.792	258.73
399.005	-146.77
399.219	-183.63
399.433	-13.65
399.646	189.1
399.86	-27.99
400.073	-40.28
400.287	146.09
400.5	-52.56
400.714	-27.99
400.927	-103.76
401.141	129.7
401.354	1055.39
401.567	49.83
401.781	-292.18
401.994	209.58
402.208	551.59
402.421	-208.21
402.635	-142.68
402.848	-34.13
403.061	225.96
403.275	-81.24
403.488	-367.95
403.701	453.28
403.915	193.19
404.128	-13.65
404.341	-177.49
404.555	150.18
404.768	-56.66
404.981	-15.7
405.195	-204.11
405.408	377.51
405.621	193.19
405.834	-95.57
406.048	-302.42
406.261	377.51
406.474	377.51
406.687	-253.27
406.9	-32.08
407.114	-27.99
407.327	29.35
407.54	-267.6
407.753	-443.73
407.966	-167.25
408.179	158.38
408.392	-259.41
408.605	-429.39
408.819	27.31
409.032	60.07
409.245	-283.99
409.458	4.78
409.671	166.57
409.884	125.61
410.097	-400.72
410.31	-15.7
410.523	0.68
410.736	-23.89
410.949	-150.87
411.162	-195.92
411.375	373.41
411.588	301.73
411.801	-95.57
412.014	-177.49
412.227	8.87
412.44	-138.58
412.653	-191.83
412.865	-77.14
413.078	287.4
413.291	109.22
413.504	-87.38
413.717	-259.41
413.93	195.24
414.143	-204.11
414.356	-212.31
414.568	-337.23
414.781	125.61
414.994	47.79
415.207	-138.58
415.42	-159.06
415.632	174.76
415.845	432.8
416.058	-345.42
416.271	-306.51
416.483	21.16
416.696	436.9
416.909	-226.64
417.121	-300.37
417.334	152.23
417.547	461.48
417.759	-210.26
417.972	-304.46
418.185	-97.62
418.397	215.72
418.61	-202.07
418.823	-183.63
419.035	322.21
419.248	-1.37
419.46	-208.21
419.673	-146.77
419.885	109.22
420.098	-140.63
420.311	-193.87
420.523	-408.91
420.736	141.99
420.948	10.92
421.161	-322.9
421.373	-419.15
421.586	80.55
421.798	-183.63
422.01	-404.82
422.223	-62.8
422.435	-93.52
422.648	109.22
422.86	-238.93
423.073	-240.98
423.285	234.15
423.497	-304.46
423.71	-279.89
423.922	-183.63
424.134	90.79
424.347	318.12
424.559	-34.13
424.771	72.36
424.984	-38.23
425.196	123.56
425.408	-370
425.621	-415.06
425.833	285.35
426.045	338.6
426.257	-296.27
426.47	-298.32
426.682	166.57
426.894	6.83
427.106	-212.31
427.318	-154.96
427.531	-71
427.743	176.81
427.955	-292.18
428.167	203.43
428.379	148.14
428.591	-107.86
428.804	-128.34
429.016	-277.84
429.228	-157.01
429.44	101.03
429.652	-17.75
429.864	-357.71
430.076	-46.42
430.288	-44.37
430.5	-154.96
430.712	-142.68
430.924	252.58
431.136	-38.23
431.348	-406.86
431.56	-230.74
431.772	-23.89
431.984	-124.24
432.196	-288.08
432.408	-247.12
432.62	-122.2
432.832	117.42
433.044	19.11
433.256	-77.14
433.468	154.28
433.679	-271.7
433.891	-281.94
434.103	-38.23
434.315	365.22
434.527	152.23
434.739	-142.68
434.95	-302.42
435.162	189.1
435.374	-148.82
435.586	-200.02
435.798	-210.26
436.009	-265.55
436.221	-68.95
436.433	-283.99
436.645	-259.41
436.856	-126.29
437.068	281.25
437.28	-343.38
437.491	19.11
437.703	39.59
437.915	82.6
438.126	-222.55
438.338	39.59
438.55	-62.8
438.761	76.46
438.973	-230.74
439.184	-183.63
439.396	94.89
439.608	242.34
439.819	-314.7
440.031	-148.82
440.242	205.48
440.454	131.75
440.665	-171.35
440.877	-138.58
441.088	139.94
441.3	-46.42
441.511	-435.53
441.723	-267.6
441.934	60.07
442.146	-85.33
442.357	-107.86
442.569	19.11
442.78	-15.7
442.991	359.08
443.203	49.83
443.414	-370
443.626	232.1
443.837	-165.2
444.048	-349.52
444.26	-357.71
444.471	29.35
444.682	146.09
444.894	-435.53
445.105	-390.48
445.316	191.14
445.528	49.83
445.739	-177.49
445.95	-251.22
446.161	27.31
446.373	203.43
446.584	-238.93
446.795	-271.7
447.006	164.52
447.217	369.32
447.429	-365.9
447.64	-359.76
447.851	283.3
448.062	-77.14
448.273	-390.48
448.484	-347.47
448.695	148.14
448.907	-132.44
449.118	-226.64
449.329	-25.94
449.54	-165.2
449.751	-193.87
449.962	-296.27
450.173	-240.98
450.384	256.68
450.595	301.73
450.806	-333.14
451.017	-247.12
451.228	275.11
451.439	191.14
451.65	-273.75
451.861	-429.39
452.072	-240.98
452.283	-25.94
452.494	-21.85
452.705	-283.99
452.915	311.97
453.126	55.98
453.337	-218.45
453.548	-243.03
453.759	273.06
453.97	447.14
454.181	-77.14
454.391	-185.68
454.602	37.55
454.813	111.27
455.024	-101.72
455.235	-257.36
455.445	-5.46
455.656	156.33
455.867	-42.32
456.078	-296.27
456.288	-114
456.499	0.68
456.71	-361.81
456.921	-48.47
457.131	-21.85
457.342	58.03
457.553	-169.3
457.763	-177.49
457.974	76.46
458.184	156.33
458.395	-331.09
458.606	-406.86
458.816	287.4
459.027	449.19
459.237	-187.73
459.448	-451.92
459.659	258.73
459.869	486.05
460.08	-499.02
460.29	-157.01
460.501	363.17
460.711	-171.35
460.922	-458.06
461.132	-279.89
461.343	602.79
461.553	-410.96
461.764	-255.31
461.974	-220.5
462.184	168.62
462.395	109.22
462.605	-212.31
462.816	-402.77
463.026	-36.18
463.236	203.43
463.447	-273.75
463.657	-292.18
463.867	217.77
464.078	-36.18
464.288	-220.5
464.498	-290.13
464.709	8.87
464.919	-32.08
465.129	-240.98
465.339	-419.15
465.55	94.89
465.76	105.13
465.97	-202.07
466.18	-316.75
466.391	197.29
466.601	70.31
466.811	-243.03
467.021	-404.82
467.231	43.69
467.441	264.87
467.651	-193.87
467.862	-400.72
468.072	-103.76
468.282	252.58
468.492	-345.42
468.702	-290.13
468.912	29.35
469.122	494.24
469.332	49.83
469.542	-376.14
469.752	207.53
469.962	-40.28
470.172	-341.33
470.382	-341.33
470.592	129.7
470.802	219.82
471.012	-124.24
471.222	-361.81
471.432	211.62
471.642	137.9
471.852	-150.87
472.062	-318.8
472.272	-34.13
472.482	-245.07
472.691	-324.94
472.901	-413.01
473.111	-13.65
473.321	451.24
473.531	-425.29
473.741	-216.4
473.95	166.57
474.16	105.13
474.37	-167.25
474.58	-357.71
474.79	428.71
474.999	174.76
475.209	-337.23
475.419	-292.18
475.628	-130.39
475.838	96.94
476.048	-218.45
476.258	-359.76
476.467	318.12
476.677	-163.15
476.886	-77.14
477.096	-206.16
477.306	-167.25
477.515	215.72
477.725	-243.03
477.935	-247.12
478.144	354.98
478.354	-165.2
478.563	-202.07
478.773	-341.33
478.982	129.7
479.192	141.99
479.401	-85.33
479.611	-402.77
479.82	-144.72
480.03	103.08
480.239	-292.18
480.449	-433.49
480.658	311.97
480.868	-288.08
481.077	-316.75
481.287	-226.64
481.496	98.99
481.705	307.88
481.915	-38.23
482.124	-38.23
482.333	17.07
482.543	330.41
482.752	-218.45
482.961	-390.48
483.171	150.18
483.38	-91.48
483.589	-150.87
483.799	-341.33
484.008	-107.86
484.217	295.59
484.426	-224.59
484.636	-355.66
484.845	41.64
485.054	-279.89
485.263	-23.89
485.472	-263.51
485.682	375.46
485.891	-5.46
486.1	-367.95
486.309	-224.59
486.518	80.55
486.727	314.02
486.936	-363.86
487.146	-173.39
487.355	242.34
487.564	-240.98
487.773	-232.79
487.982	-259.41
488.191	-197.97
488.4	15.02
488.609	-179.54
488.818	-267.6
489.027	547.49
489.236	344.74
489.445	-206.16
489.654	-372.05
489.863	185
490.072	-7.51
490.281	-46.42
490.49	-314.7
490.698	309.93
490.907	330.41
491.116	-212.31
491.325	-308.56
491.534	389.8
491.743	-77.14
491.952	-177.49
492.16	-157.01
492.369	121.51
492.578	195.24
492.787	-232.79
492.996	-144.72
493.204	-148.82
493.413	400.04
493.622	-501.07
493.831	-423.25
494.039	354.98
494.248	-236.88
494.457	-376.14
494.665	-445.77
494.874	180.9
495.083	477.86
495.291	-306.51
495.5	-388.43
495.709	191.14
495.917	-42.32
496.126	-130.39
496.335	-390.48
496.543	-126.29
496.752	35.5
496.96	-17.75
497.169	-396.62
497.377	-7.51
497.586	176.81
497.794	-120.15
498.003	-531.79
498.211	-91.48
498.42	379.56
498.628	-161.11
498.837	-357.71
499.045	109.22
499.254	82.6
499.462	-326.99
499.671	-316.75
499.879	447.14
500.087	174.76
500.296	-259.41
500.504	-259.41
500.713	23.21
500.921	475.81
501.129	-267.6
501.338	-275.79
501.546	21.16
501.754	4.78
501.962	-324.94
502.171	-474.45
502.379	117.42
502.587	367.27
502.795	-261.46
503.004	-275.79
503.212	-87.38
503.42	289.45
503.628	-349.52
503.837	-101.72
504.045	137.9
504.253	436.9
504.461	-240.98
504.669	-521.55
504.877	101.03
505.085	371.36
505.294	-415.06
505.502	-109.91
505.71	55.98
505.918	228.01
506.126	-390.48
506.334	-247.12
506.542	6.83
506.75	49.83
506.958	-230.74
507.166	-257.36
507.374	-124.24
507.582	363.17
507.79	-181.59
507.998	-384.34
508.206	109.22
508.414	144.04
508.622	-353.62
508.83	-296.27
509.037	404.13
509.245	-124.24
509.453	-392.53
509.661	-382.29
509.869	170.66
510.077	-116.05
510.285	-101.72
510.492	-595.28
510.7	486.05
510.908	-103.76
511.116	-240.98
511.324	-308.56
511.531	-17.75
511.739	33.45
511.947	-126.29
512.155	-50.52
512.362	76.46
512.57	-347.47
512.778	-347.47
512.985	-453.97
513.193	223.91
513.401	326.31
513.608	-341.33
513.816	-316.75
514.024	37.55
514.231	172.71
514.439	-337.23
514.646	-337.23
514.854	199.34
515.061	215.72
515.269	-271.7
515.477	-296.27
515.684	-214.35
515.892	189.1
516.099	-361.81
516.307	-447.82
516.514	199.34
516.722	346.79
516.929	-296.27
517.136	-357.71
517.344	322.21
517.551	-19.8
517.759	-370
517.966	-259.41
518.173	-99.67
518.381	-83.28
518.588	-277.84
518.796	-372.05
519.003	211.62
519.21	-79.19
519.418	-347.47
519.625	-25.94
519.832	-93.52
520.039	53.93
520.247	-472.4
520.454	-339.28
520.661	166.57
520.868	47.79
521.076	-296.27
521.283	-222.55
521.49	641.7
521.697	39.59
521.904	-306.51
522.112	-300.37
522.319	150.18
522.526	-17.75
522.733	-372.05
522.94	-345.42
523.147	-34.13
523.354	178.86
523.561	-501.07
523.768	-228.69
523.975	176.81
524.183	-17.75
524.39	-222.55
524.597	-435.53
524.804	-17.75
525.011	-191.83
525.218	-372.05
525.425	-341.33
525.632	322.21
525.838	-243.03
526.045	-339.28
526.252	-353.62
526.459	1069.72
526.666	744.1
526.873	-337.23
527.08	-275.79
527.287	322.21
527.494	76.46
527.701	-443.73
527.907	-345.42
528.114	84.65
528.321	-54.61
528.528	-300.37
528.735	-329.04
528.941	-126.29
529.148	-146.77
529.355	-216.4
529.562	-306.51
529.768	297.64
529.975	-152.91
530.182	-347.47
530.388	-372.05
530.595	254.63
530.802	-228.69
531.008	-181.59
531.215	-249.17
531.422	608.93
531.628	748.19
531.835	-218.45
532.042	-306.51
532.248	-154.96
532.455	4.78
532.661	-216.4
532.868	-337.23
533.074	8.87
533.281	242.34
533.487	-230.74
533.694	-398.67
533.9	-114
534.107	84.65
534.313	-427.34
534.52	-472.4
534.726	228.01
534.933	371.36
535.139	-365.9
535.345	-458.06
535.552	37.55
535.758	39.59
535.965	-382.29
536.171	-333.14
536.377	193.19
536.584	307.88
536.79	-365.9
536.996	-200.02
537.203	45.74
537.409	133.8
537.615	-308.56
537.821	-68.95
538.028	205.48
538.234	88.75
538.44	-300.37
538.646	-255.31
538.853	150.18
539.059	-58.71
539.265	39.59
539.471	-542.03
539.677	228.01
539.883	-27.99
540.09	-302.42
540.296	125.61
540.502	-97.62
540.708	-240.98
540.914	-189.78
541.12	-283.99
541.326	135.85
541.532	-13.65
541.738	-195.92
541.944	-310.61
542.15	164.52
542.356	-111.96
542.562	-335.18
542.768	-202.07
542.974	551.59
543.18	514.72
543.386	-324.94
543.592	-537.93
543.798	340.65
544.004	254.63
544.21	-390.48
544.415	-206.16
544.621	29.35
544.827	185
545.033	-372.05
545.239	-134.48
545.445	-277.84
545.651	10.92
545.856	-376.14
546.062	-273.75
546.268	-136.53
546.474	0.68
546.679	-234.83
546.885	-226.64
547.091	-144.72
547.297	408.23
547.502	-247.12
547.708	-445.77
547.914	-230.74
548.119	154.28
548.325	-388.43
548.531	-515.41
548.736	414.37
548.942	-173.39
549.147	-337.23
549.353	-87.38
549.559	168.62
549.764	88.75
549.97	-353.62
550.175	-290.13
550.381	129.7
550.586	-202.07
550.792	-378.19
550.997	-275.79
551.203	10.92
551.408	180.9
551.614	-355.66
551.819	-388.43
552.025	359.08
552.23	514.72
552.435	-421.2
552.641	-197.97
552.846	-187.73
553.052	297.64
553.257	-204.11
553.462	-310.61
553.668	-206.16
553.873	156.33
554.078	-316.75
554.283	-329.04
554.489	33.45
554.694	27.31
554.899	-423.25
555.105	-175.44
555.31	62.12
555.515	82.6
555.72	-261.46
555.925	-425.29
556.131	107.18
556.336	-130.39
556.541	-431.44
556.746	-404.82
556.951	260.77
557.156	273.06
557.361	-181.59
557.567	-210.26
557.772	479.91
557.977	150.18
558.182	-275.79
558.387	-343.38
558.592	-206.16
558.797	273.06
559.002	-234.83
559.207	-138.58
559.412	-77.14
559.617	432.8
559.822	-271.7
560.027	-372.05
560.232	76.46
560.437	103.08
560.642	-437.58
560.847	-390.48
561.051	-9.56
561.256	64.17
561.461	-275.79
561.666	-408.91
561.871	0.68
562.076	94.89
562.281	-259.41
562.485	-363.86
562.69	185
562.895	187.05
563.1	-326.99
563.305	-341.33
563.509	357.03
563.714	529.06
563.919	-384.34
564.123	-341.33
564.328	-58.71
564.533	281.25
564.737	-281.94
564.942	-265.55
565.147	400.04
565.351	494.24
565.556	-232.79
565.761	-200.02
565.965	96.94
566.17	-197.97
566.374	-343.38
566.579	-443.73
566.784	92.84
566.988	-150.87
567.193	-406.86
567.397	-345.42
567.602	-324.94
567.806	-54.61
568.011	-222.55
568.215	-243.03
568.42	-120.15
568.624	-52.56
568.828	-331.09
569.033	-249.17
569.237	84.65
569.442	137.9
569.646	-378.19
569.85	-349.52
570.055	-87.38
570.259	39.59
570.463	-66.9
570.668	-324.94
570.872	-81.24
571.076	-93.52
571.281	-122.2
571.485	-169.3
571.689	-48.47
571.893	121.51
572.098	-193.87
572.302	-269.65
572.506	47.79
572.71	-71
572.914	-208.21
573.119	-324.94
573.323	301.73
573.527	277.16
573.731	-296.27
573.935	-443.73
574.139	121.51
574.343	-206.16
574.547	-288.08
574.751	-296.27
574.955	330.41
575.159	193.19
575.364	-353.62
575.568	-370
575.772	-17.75
575.976	350.89
576.18	-292.18
576.383	-421.2
576.587	211.62
576.791	158.38
576.995	-464.21
577.199	-550.22
577.403	277.16
577.607	217.77
577.811	-431.44
578.015	-150.87
578.219	150.18
578.422	156.33
578.626	-249.17
578.83	-105.81
579.034	244.39
579.238	12.97
579.442	-345.42
579.645	51.88
579.849	-38.23
580.053	72.36
580.257	-292.18
580.46	-308.56
580.664	146.09
580.868	154.28
581.071	-152.91
581.275	-146.77
581.479	-374.1
581.682	127.66
581.886	-357.71
582.09	-214.35
582.293	152.23
582.497	168.62
582.7	-107.86
582.904	-353.62
583.107	37.55
583.311	-161.11
583.515	-206.16
583.718	-253.27
583.922	27.31
584.125	357.03
584.329	-353.62
584.532	-103.76
584.735	338.6
584.939	-3.41
585.142	-437.58
585.346	-357.71
585.549	92.84
585.753	-136.53
585.956	-306.51
586.159	-89.43
586.363	322.21
586.566	209.58
586.769	-410.96
586.973	-406.86
587.176	150.18
587.379	141.99
587.582	-3.41
587.786	-87.38
587.989	-9.56
588.192	608.93
588.395	-259.41
588.599	-17.75
588.802	125.61
589.005	201.38
589.208	-298.32
589.411	-324.94
589.615	201.38
589.818	402.08
590.021	-73.04
590.224	-181.59
590.427	228.01
590.63	117.42
590.833	-468.3
591.036	-324.94
591.239	-79.19
591.442	-79.19
591.645	25.26
591.848	-259.41
592.051	-13.65
592.254	266.92
592.457	-386.38
592.66	-298.32
592.863	4.78
593.066	84.65
593.269	-300.37
593.472	-150.87
593.675	-128.34
593.878	201.38
594.081	-218.45
594.284	-384.34
594.486	129.7
594.689	-56.66
594.892	-173.39
595.095	-214.35
595.298	23.21
595.5	-152.91
595.703	-148.82
595.906	-181.59
596.109	322.21
596.311	246.44
596.514	-611.66
596.717	-185.68
596.92	230.06
597.122	76.46
597.325	-525.65
597.528	-374.1
597.73	318.12
597.933	-58.71
598.136	-238.93
598.338	-568.65
598.541	94.89
598.743	346.79
598.946	-263.51
599.148	-267.6
599.351	326.31
599.554	322.21
599.756	-214.35
599.959	-224.59
600.161	238.25
600.363	594.59
600.566	-9.56
600.768	-226.64
600.971	330.41
601.173	137.9
601.376	-283.99
601.578	-230.74
601.78	84.65
601.983	608.93
602.185	-322.9
602.388	-134.48
602.59	111.27
602.792	-157.01
602.995	-60.76
603.197	-306.51
603.399	262.82
603.601	39.59
603.804	-265.55
604.006	-343.38
604.208	68.27
604.41	-355.66
604.613	-111.96
604.815	-378.19
605.017	510.63
605.219	-234.83
605.421	158.38
605.623	-271.7
605.826	381.6
606.028	289.45
606.23	-302.42
606.432	-232.79
606.634	463.52
606.836	258.73
607.038	-421.2
607.24	-107.86
607.442	-1.37
607.644	-87.38
607.846	-167.25
608.048	-290.13
608.25	328.36
608.452	-189.78
608.654	-273.75
608.856	-552.27
609.058	-50.52
609.26	53.93
609.462	-247.12
609.664	-218.45
609.866	461.48
610.067	219.82
610.269	-30.04
610.471	-322.9
610.673	-103.76
610.875	115.37
611.077	-441.68
611.278	-152.91
611.48	35.5
611.682	457.38
611.884	-189.78
612.085	-206.16
612.287	-200.02
612.489	101.03
612.69	-404.82
612.892	-193.87
613.094	117.42
613.295	68.27
613.497	-308.56
613.699	-265.55
613.9	354.98
614.102	268.97
614.304	-212.31
614.505	-437.58
614.707	49.83
614.908	-38.23
615.11	-410.96
615.311	-148.82
615.513	199.34
615.714	291.49
615.916	-310.61
616.117	-191.83
616.319	-13.65
616.52	201.38
616.722	-298.32
616.923	-380.24
617.124	289.45
617.326	127.66
617.527	-77.14
617.729	-75.09
617.93	193.19
618.131	225.96
618.333	-275.79
618.534	-224.59
618.735	-120.15
618.937	363.17
619.138	-355.66
619.339	-345.42
619.54	123.56
619.742	-87.38
619.943	-66.9
620.144	-224.59
620.345	174.76
620.546	217.77
620.748	-300.37
620.949	-238.93
621.15	25.26
621.351	47.79
621.552	-294.22
621.753	-413.01
621.954	-281.94
622.155	506.53
622.356	-365.9
622.558	-132.44
622.759	2.73
622.96	406.18
623.161	-200.02
623.362	-279.89
623.563	-17.75
623.764	72.36
623.965	-271.7
624.166	-116.05
624.366	-99.67
624.567	141.99
624.768	-410.96
624.969	-243.03
625.17	-64.85
625.371	172.71
625.572	-251.22
625.773	-410.96
625.973	215.72
626.174	256.68
626.375	-161.11
626.576	-116.05
626.777	139.94
626.977	584.35
627.178	-283.99
627.379	-206.16
627.58	-122.2
627.78	43.69
627.981	-138.58
628.182	-202.07
628.382	217.77
628.583	-339.28
628.784	-382.29
628.984	-118.1
629.185	211.62
629.386	228.01
629.586	-173.39
629.787	-347.47
629.987	117.42
630.188	-7.51
630.388	-202.07
630.589	-150.87
630.79	596.64
630.99	82.6
631.191	-226.64
631.391	-71
631.591	170.66
631.792	379.56
631.992	-97.62
632.193	-230.74
632.393	473.76
632.594	41.64
632.794	-265.55
632.994	-58.71
633.195	0.68
633.395	19.11
633.595	-290.13
633.796	47.79
633.996	-236.88
634.196	225.96
634.397	-365.9
634.597	-202.07
634.797	-165.2
634.997	381.6
635.198	10.92
635.398	-304.46
635.598	47.79
635.798	346.79
635.998	160.42
636.199	-302.42
636.399	-66.9
636.599	-142.68
636.799	-296.27
636.999	6.83
637.199	174.76
637.399	211.62
637.599	-279.89
637.799	-132.44
637.999	-183.63
638.199	410.28
638.399	-292.18
638.599	-273.75
638.799	223.91
638.999	535.2
639.199	-17.75
639.399	-128.34
639.599	404.13
639.799	-148.82
639.999	-380.24
640.199	-312.66
640.399	84.65
640.599	133.8
640.799	-167.25
640.998	-9.56
641.198	314.02
641.398	105.13
641.598	-87.38
641.798	-161.11
641.997	963.23
642.197	92.84
642.397	-60.76
642.597	-230.74
642.796	135.85
642.996	352.93
643.196	12.97
643.395	-322.9
643.595	191.14
643.795	-408.91
643.994	-214.35
644.194	-210.26
644.394	168.62
644.593	144.04
644.793	-363.86
644.992	-140.63
645.192	156.33
645.392	-304.46
645.591	-101.72
645.791	-134.48
645.99	168.62
646.19	15.02
646.389	-173.39
646.589	-161.11
646.788	228.01
646.987	150.18
647.187	25.26
647.386	-11.61
647.586	-23.89
647.785	295.59
647.984	-191.83
648.184	-114
648.383	-5.46
648.582	-44.37
648.782	-165.2
648.981	-99.67
649.18	-85.33
649.38	113.32
649.579	-255.31
649.778	-236.88
649.977	178.86
650.177	76.46
650.376	-333.14
650.575	-247.12
650.774	406.18
650.973	-148.82
651.173	-283.99
651.372	-103.76
651.571	45.74
651.77	307.88
651.969	-202.07
652.168	-103.76
652.367	-283.99
652.566	17.07
652.765	-267.6
652.964	90.79
653.163	453.28
653.362	25.26
653.561	-150.87
653.76	-181.59
653.959	-68.95
654.158	94.89
654.357	-56.66
654.556	-171.35
654.755	137.9
654.954	273.06
655.153	-163.15
655.352	-132.44
655.551	354.98
655.749	-56.66
655.948	-206.16
656.147	-144.72
656.346	166.57
656.545	35.5
656.743	-157.01
656.942	-128.34
657.141	33.45
657.34	-136.53
657.538	-165.2
657.737	-212.31
657.936	-152.91
658.135	154.28
658.333	-232.79
658.532	-48.47
658.731	416.42
658.929	215.72
659.128	115.37
659.326	-259.41
659.525	414.37
659.724	10.92
659.922	-380.24
660.121	-333.14
660.319	92.84
660.518	-93.52
660.716	-279.89
660.915	-286.03
661.113	322.21
661.312	-269.65
661.51	-60.76
661.709	-292.18
661.907	125.61
662.105	479.91
662.304	-251.22
662.502	-171.35
662.701	305.83
662.899	-62.8
663.097	223.91
663.296	-339.28
663.494	293.54
663.692	397.99
663.891	-302.42
664.089	-234.83
664.287	92.84
664.485	324.26
664.684	-302.42
664.882	-114
665.08	111.27
665.278	82.6
665.476	-372.05
665.675	55.98
665.873	424.61
666.071	289.45
666.269	-173.39
666.467	-3.41
666.665	74.41
666.863	6.83
667.061	55.98
667.259	-159.06
667.457	37.55
667.655	240.3
667.853	-347.47
668.051	-17.75
668.249	-132.44
668.447	170.66
668.645	-265.55
668.843	-7.51
669.041	150.18
669.239	-91.48
669.437	-25.94
669.635	-77.14
669.833	-111.96
670.031	258.73
670.229	-25.94
670.426	-44.37
670.624	-75.09
670.822	-71
671.02	-148.82
671.218	-230.74
671.415	-185.68
671.613	-11.61
671.811	-128.34
672.009	-138.58
672.206	197.29
672.404	62.12
672.602	92.84
672.799	-58.71
672.997	119.46
673.195	359.08
673.392	-56.66
673.59	-249.17
673.788	240.3
673.985	-345.42
674.183	-83.28
674.38	-128.34
674.578	262.82
674.775	-134.48
674.973	-210.26
675.17	-257.36
675.368	543.39
675.565	164.52
675.763	-175.44
675.96	-281.94
676.158	322.21
676.355	31.4
676.553	-216.4
676.75	-124.24
676.947	39.59
677.145	-66.9
677.342	6.83
677.539	-101.72
677.737	137.9
677.934	543.39
678.131	78.51
678.329	-161.11
678.526	510.63
678.723	164.52
678.92	-40.28
679.118	-165.2
679.315	-200.02
679.512	428.71
679.709	-54.61
679.906	-120.15
680.104	379.56
680.301	51.88
680.498	-263.51
680.695	-230.74
680.892	-118.1
681.089	-93.52
681.286	-60.76
681.483	-263.51
681.68	133.8
681.877	299.69
682.075	-124.24
682.272	72.36
682.469	137.9
682.665	10.92
682.862	-222.55
683.059	-300.37
683.256	137.9
683.453	84.65
683.65	-136.53
683.847	-83.28
684.044	21.16
684.241	-103.76
684.438	-36.18
684.635	-247.12
684.831	492.2
685.028	596.64
685.225	-228.69
685.422	41.64
685.619	-9.56
685.815	117.42
686.012	-7.51
686.209	-99.67
686.405	-261.46
686.602	248.49
686.799	-247.12
686.996	-236.88
687.192	-148.82
687.389	512.67
687.586	-175.44
687.782	-175.44
687.979	477.86
688.175	318.12
688.372	-132.44
688.568	-120.15
688.765	-114
688.962	344.74
689.158	-124.24
689.355	-259.41
689.551	201.38
689.748	-52.56
689.944	-52.56
690.14	-208.21
690.337	371.36
690.533	-54.61
690.73	74.41
690.926	-97.62
691.123	246.44
691.319	0.68
691.515	-245.07
691.712	2.73
691.908	201.38
692.104	168.62
692.301	-13.65
692.497	-322.9
692.693	314.02
692.889	279.21
693.086	12.97
693.282	-308.56
693.478	129.7
693.674	371.36
693.87	-122.2
694.067	-238.93
694.263	92.84
694.459	-13.65
694.655	-79.19
694.851	-120.15
695.047	187.05
695.243	273.06
695.439	88.75
695.635	-218.45
695.831	254.63
696.027	125.61
696.224	-130.39
696.42	205.48
696.615	381.6
696.811	234.15
697.007	-269.65
697.203	-101.72
697.399	191.14
697.595	330.41
697.791	-212.31
697.987	12.97
698.183	-128.34
698.379	-81.24
698.575	-130.39
698.77	-97.62
698.966	217.77
699.162	338.6
699.358	-103.76
699.554	-77.14
699.749	203.43
699.945	297.64
700.141	-17.75
700.337	-30.04
700.532	64.17
700.728	-103.76
700.924	-185.68
701.119	-238.93
701.315	283.3
701.511	12.97
701.706	-130.39
701.902	-318.8
702.097	109.22
702.293	232.1
702.489	-34.13
702.684	-136.53
702.88	72.36
703.075	27.31
703.271	-140.63
703.466	-208.21
703.662	121.51
703.857	250.53
704.053	-206.16
704.248	-138.58
704.443	301.73
704.639	209.58
704.834	-83.28
705.03	-191.83
705.225	330.41
705.42	330.41
705.616	-101.72
705.811	-212.31
706.006	37.55
706.202	-58.71
706.397	-118.1
706.592	-247.12
706.787	96.94
706.983	119.46
707.178	45.74
707.373	-56.66
707.568	207.53
707.763	412.32
707.959	-140.63
708.154	-187.73
708.349	146.09
708.544	162.47
708.739	60.07
708.934	-214.35
709.129	244.39
709.324	344.74
709.519	-165.2
709.714	-224.59
709.909	346.79
710.104	154.28
710.299	-95.57
710.494	23.21
710.689	232.1
710.884	166.57
711.079	-21.85
711.274	115.37
711.469	164.52
711.664	158.38
711.859	-95.57
712.054	10.92
712.249	354.98
712.443	412.32
712.638	-214.35
712.833	-218.45
713.028	31.4
713.223	84.65
713.417	152.23
713.612	-177.49
713.807	234.15
714.002	613.03
714.196	141.99
714.391	-130.39
714.586	309.93
714.78	37.55
714.975	-159.06
715.17	-87.38
715.364	-11.61
715.559	322.21
715.754	-306.51
715.948	-185.68
716.143	551.59
716.337	234.15
716.532	62.12
716.726	-175.44
716.921	219.82
717.115	486.05
717.31	-230.74
717.504	412.32
717.699	25.26
717.893	418.47
718.088	-232.79
718.282	-312.66
718.476	191.14
718.671	248.49
718.865	-210.26
719.059	-144.72
719.254	113.32
719.448	500.39
719.642	1168.02
719.837	-224.59
720.031	299.69
720.225	338.6
720.419	19.11
720.614	-85.33
720.808	291.49
721.002	43.69
721.196	-154.96
721.39	-126.29
721.585	428.71
721.779	199.34
721.973	-21.85
722.167	-292.18
722.361	180.9
722.555	373.41
722.749	-111.96
722.943	-177.49
723.137	-116.05
723.331	131.75
723.525	-142.68
723.719	-111.96
723.913	277.16
724.107	371.36
724.301	-161.11
724.495	-124.24
724.689	465.57
724.883	408.23
725.077	-175.44
725.271	-130.39
725.465	397.99
725.659	115.37
725.853	-62.8
726.046	-238.93
726.24	-17.75
726.434	305.83
726.628	-216.4
726.822	-81.24
727.015	441
727.209	436.9
727.403	-103.76
727.596	-191.83
727.79	289.45
727.984	297.64
728.177	-105.81
728.371	-79.19
728.565	334.5
728.758	-251.22
728.952	-142.68
729.146	-99.67
729.339	285.35
729.533	64.17
729.726	-161.11
729.92	-103.76
730.113	432.8
730.307	154.28
730.5	-13.65
730.694	-152.91
730.887	37.55
731.081	213.67
731.274	-210.26
731.468	-46.42
731.661	158.38
731.854	70.31
732.048	-177.49
732.241	-267.6
732.435	-79.19
732.628	111.27
732.821	-118.1
733.014	-243.03
733.208	-197.97
733.401	225.96
733.594	-122.2
733.788	-105.81
733.981	385.7
734.174	236.2
734.367	-140.63
734.56	17.07
734.754	238.25
734.947	90.79
735.14	-152.91
735.333	-77.14
735.526	314.02
735.719	-42.32
735.912	-181.59
736.105	-300.37
736.298	125.61
736.491	-30.04
736.684	-148.82
736.877	-216.4
737.07	213.67
737.263	393.89
737.456	-150.87
737.649	-212.31
737.842	-46.42
738.035	164.52
738.228	-44.37
738.421	43.69
738.614	379.56
738.807	291.49
739	-283.99
739.192	-226.64
739.385	121.51
739.578	352.93
739.771	154.28
739.964	-132.44
740.156	158.38
740.349	156.33
740.542	74.41
740.735	-292.18
740.927	-144.72
741.12	-56.66
741.313	-232.79
741.505	-46.42
741.698	182.95
741.891	166.57
742.083	2.73
742.276	-134.48
742.468	94.89
742.661	64.17
742.854	-89.43
743.046	-157.01
743.239	506.53
743.431	47.79
743.624	-46.42
743.816	-320.85
744.009	121.51
744.201	199.34
744.393	-5.46
744.586	-191.83
744.778	412.32
744.971	60.07
745.163	-79.19
745.355	-17.75
745.548	117.42
745.74	90.79
745.932	-42.32
746.125	-103.76
746.317	715.42
746.509	174.76
746.702	-114
746.894	-120.15
747.086	170.66
747.278	426.66
747.471	-7.51
747.663	-134.48
747.855	129.7
748.047	643.74
748.239	-210.26
748.431	-146.77
748.623	412.32
748.815	494.24
749.008	-230.74
749.2	-193.87
749.392	266.92
749.584	268.97
749.776	-54.61
749.968	62.12
750.16	543.39
750.352	51.88
750.544	-148.82
750.736	-183.63
750.928	178.86
751.12	125.61
751.311	-99.67
751.503	-34.13
751.695	205.48
751.887	117.42
752.079	-390.48
752.271	-130.39
752.463	815.77
752.654	338.6
752.846	-66.9
753.038	-128.34
753.23	51.88
753.421	332.45
753.613	-50.52
753.805	21.16
753.997	365.22
754.188	350.89
754.38	-224.59
754.572	-124.24
754.763	47.79
754.955	256.68
755.146	-50.52
755.338	-42.32
755.53	223.91
755.721	92.84
755.913	-177.49
756.104	-247.12
756.296	47.79
756.487	283.3
756.679	-238.93
756.87	-171.35
757.062	27.31
757.253	277.16
757.445	-171.35
757.636	-66.9
757.827	107.18
758.019	664.22
758.21	-181.59
758.401	-177.49
758.593	588.45
758.784	455.33
758.975	-265.55
759.167	-236.88
759.358	162.47
759.549	357.03
759.74	-83.28
759.932	-142.68
760.123	481.96
760.314	49.83
760.505	55.98
760.696	-185.68
760.888	518.82
761.079	109.22
761.27	-222.55
761.461	-267.6
761.652	471.72
761.843	19.11
762.034	-62.8
762.225	187.05
762.416	158.38
762.607	158.38
762.798	-109.91
762.989	-152.91
763.18	920.22
763.371	62.12
763.562	-103.76
763.753	-165.2
763.944	426.66
764.135	322.21
764.326	84.65
764.517	-208.21
764.708	236.2
764.899	301.73
765.089	-181.59
765.28	-286.03
765.471	240.3
765.662	334.5
765.853	-27.99
766.043	-263.51
766.234	326.31
766.425	314.02
766.615	-91.48
766.806	-263.51
766.997	438.95
767.187	236.2
767.378	-220.5
767.569	-357.71
767.759	193.19
767.95	129.7
768.141	6.83
768.331	-212.31
768.522	162.47
768.712	230.06
768.903	-191.83
769.093	-146.77
769.284	563.87
769.474	152.23
769.665	-312.66
769.855	-222.55
770.046	254.63
770.236	27.31
770.426	27.31
770.617	-314.7
770.807	252.58
770.998	66.22
771.188	-3.41
771.378	-247.12
771.569	373.41
771.759	264.87
771.949	-267.6
772.139	-456.01
772.33	105.13
772.52	422.56
772.71	-148.82
772.9	-243.03
773.09	598.69
773.281	432.8
773.471	-189.78
773.661	-161.11
773.851	324.26
774.041	47.79
774.231	-99.67
774.421	-36.18
774.611	465.57
774.802	160.42
774.992	-91.48
775.182	-283.99
775.372	94.89
775.562	371.36
775.752	-105.81
775.942	-140.63
776.131	549.54
776.321	244.39
776.511	-206.16
776.701	-222.55
776.891	256.68
777.081	-116.05
777.271	-95.57
777.461	-169.3
777.651	322.21
777.84	467.62
778.03	90.79
778.22	-165.2
778.41	424.61
778.599	-54.61
778.789	-193.87
778.979	-167.25
779.169	256.68
779.358	111.27
779.548	158.38
779.738	-275.79
779.927	217.77
780.117	-95.57
780.307	-38.23
780.496	-333.14
780.686	166.57
780.875	539.3
781.065	-144.72
781.254	-150.87
781.444	189.1
781.633	199.34
781.823	-165.2
782.012	-214.35
782.202	55.98
782.391	92.84
782.581	-255.31
782.77	51.88
782.96	297.64
783.149	-7.51
783.338	-79.19
783.528	-300.37
783.717	297.64
783.906	383.65
784.096	-60.76
784.285	-177.49
784.474	29.35
784.663	-128.34
784.853	-124.24
785.042	-71
785.231	25.26
785.42	332.45
785.61	-15.7
785.799	-271.7
785.988	-32.08
786.177	101.03
786.366	-56.66
786.555	10.92
786.744	334.5
786.933	127.66
787.122	-259.41
787.312	-324.94
787.501	-9.56
787.69	242.34
787.879	-165.2
788.068	-206.16
788.257	-130.39
788.445	55.98
788.634	-83.28
788.823	-316.75
789.012	735.9
789.201	441
789.39	-13.65
789.579	-202.07
789.768	33.45
789.957	117.42
790.145	-183.63
790.334	-408.91
790.523	-11.61
790.712	49.83
790.9	-99.67
791.089	-281.94
791.278	363.17
791.467	150.18
791.655	172.71
791.844	393.89
792.033	-9.56
792.221	29.35
792.41	-200.02
792.599	-347.47
792.787	352.93
792.976	326.31
793.164	-329.04
793.353	-165.2
793.541	223.91
793.73	187.05
793.918	-120.15
794.107	-118.1
794.295	152.23
794.484	178.86
794.672	-132.44
794.861	-140.63
795.049	264.87
795.238	479.91
795.426	-359.76
795.614	-116.05
795.803	219.82
795.991	408.23
796.179	-230.74
796.368	-144.72
796.556	365.22
796.744	-87.38
796.932	-206.16
797.121	-292.18
797.309	51.88
797.497	307.88
797.685	-128.34
797.874	-173.39
798.062	-3.41
798.25	395.94
798.438	-193.87
798.626	-189.78
798.814	185
799.002	633.51
799.19	17.07
799.378	-54.61
799.566	443.04
799.755	490.15
799.943	90.79
800.131	-136.53
800.318	178.86
800.506	166.57
800.694	-157.01
800.882	-56.66
801.07	391.84
801.258	152.23
801.446	-181.59
801.634	-114
801.822	103.08
802.01	88.75
802.197	-222.55
802.385	-5.46
802.573	113.32
802.761	-42.32
802.949	-85.33
803.136	-275.79
803.324	340.65
803.512	135.85
803.699	-134.48
803.887	-296.27
804.075	383.65
804.262	-3.41
804.45	-279.89
804.638	-46.42
804.825	-128.34
805.013	-62.8
805.201	-152.91
805.388	-296.27
805.576	64.17
805.763	375.46
805.951	-140.63
806.138	-34.13
806.326	580.26
806.513	244.39
806.701	-103.76
806.888	-193.87
807.075	211.62
807.263	486.05
807.45	-286.03
807.638	-7.51
807.825	565.92
808.012	369.32
808.2	-93.52
808.387	119.46
808.574	189.1
808.761	510.63
808.949	-193.87
809.136	15.02
809.323	25.26
809.51	17.07
809.698	209.58
809.885	-25.94
810.072	203.43
810.259	326.31
810.446	-42.32
810.633	-179.54
810.82	354.98
811.008	424.61
811.195	25.26
811.382	-68.95
811.569	117.42
811.756	-197.97
811.943	-144.72
812.13	-216.4
812.317	19.11
812.504	29.35
812.691	-79.19
812.878	-68.95
813.064	334.5
813.251	141.99
813.438	-310.61
813.625	53.93
813.812	94.89
813.999	10.92
814.186	-73.04
814.372	-120.15
814.559	96.94
814.746	451.24
814.933	-159.06
815.12	47.79
815.306	-62.8
815.493	-126.29
815.68	-216.4
815.866	-116.05
816.053	330.41
816.24	557.73
816.426	-15.7
816.613	-286.03
816.799	322.21
816.986	381.6
817.173	-122.2
817.359	-265.55
817.546	154.28
817.732	-177.49
817.919	-404.82
818.105	-68.95
818.292	29.35
818.478	219.82
818.665	35.5
818.851	-181.59
819.037	584.35
819.224	146.09
819.41	-179.54
819.597	-154.96
819.783	465.57
819.969	113.32
820.156	-83.28
820.342	-216.4
820.528	895.64
820.714	45.74
820.901	113.32
821.087	-73.04
821.273	541.35
821.459	8.87
821.646	-93.52
821.832	-216.4
822.018	35.5
822.204	154.28
822.39	-122.2
822.576	-230.74
822.762	320.17
822.948	148.14
823.134	88.75
823.32	-116.05
823.507	-48.47
823.693	178.86
823.879	264.87
824.065	-183.63
824.25	82.6
824.436	-109.91
824.622	-130.39
824.808	-222.55
824.994	17.07
825.18	-9.56
825.366	-263.51
825.552	-220.5
825.738	72.36
825.923	314.02
826.109	84.65
826.295	-169.3
826.481	-9.56
826.667	-17.75
826.852	-5.46
827.038	-152.91
827.224	330.41
827.409	432.8
827.595	-329.04
827.781	43.69
827.966	363.17
828.152	324.26
828.338	-130.39
828.523	-238.93
828.709	-79.19
828.894	404.13
829.08	-77.14
829.266	-200.02
829.451	-21.85
829.637	240.3
829.822	-40.28
830.008	-197.97
830.193	379.56
830.378	492.2
830.564	-15.7
830.749	-259.41
830.935	322.21
831.12	260.77
831.305	-234.83
831.491	-30.04
831.676	-95.57
831.861	301.73
832.047	-42.32
832.232	-216.4
832.417	473.76
832.602	135.85
832.788	-138.58
832.973	-140.63
833.158	162.47
833.343	84.65
833.528	-89.43
833.714	-62.8
833.899	240.3
834.084	580.26
834.269	-46.42
834.454	-116.05
834.639	348.84
834.824	94.89
835.009	35.5
835.194	-21.85
835.379	242.34
835.564	629.41
835.749	119.46
835.934	-216.4
836.119	330.41
836.304	170.66
836.489	-169.3
836.674	113.32
836.859	-75.09
837.044	453.28
837.228	-40.28
837.413	-275.79
837.598	168.62
837.783	453.28
837.968	-44.37
838.152	-281.94
838.337	-288.08
838.522	457.38
838.707	346.79
838.891	47.79
839.076	182.95
839.261	397.99
839.445	-77.14
839.63	-48.47
839.815	504.48
839.999	68.27
840.184	-120.15
840.368	-60.76
840.553	279.21
840.737	318.12
840.922	-316.75
841.106	-185.68
841.291	-120.15
841.475	139.94
841.66	-111.96
841.844	-140.63
842.029	821.92
842.213	-150.87
842.397	-109.91
842.582	-279.89
842.766	406.18
842.951	381.6
843.135	-89.43
843.319	-136.53
843.504	109.22
843.688	455.33
843.872	-271.7
844.056	-226.64
844.241	217.77
844.425	154.28
844.609	90.79
844.793	-378.19
844.977	352.93
845.161	262.82
845.346	-292.18
845.53	-103.76
845.714	27.31
845.898	555.68
846.082	-292.18
846.266	-150.87
846.45	111.27
846.634	262.82
846.818	-142.68
847.002	-21.85
847.186	311.97
847.37	-42.32
847.554	-191.83
847.738	-32.08
847.922	207.53
848.106	178.86
848.29	-386.38
848.473	-150.87
848.657	338.6
848.841	39.59
849.025	-120.15
849.209	-302.42
849.392	305.83
849.576	-93.52
849.76	-396.62
849.944	-30.04
850.127	465.57
850.311	-38.23
850.495	-177.49
850.678	-335.18
850.862	447.14
851.046	451.24
851.229	84.65
851.413	-197.97
851.596	113.32
851.78	103.08
851.964	-34.13
852.147	-132.44
852.331	858.78
852.514	412.32
852.698	-197.97
852.881	-302.42
853.065	412.32
853.248	78.51
853.431	-107.86
853.615	35.5
853.798	707.23
853.982	178.86
854.165	107.18
854.348	-140.63
854.532	-81.24
854.715	27.31
854.898	-159.06
855.081	-116.05
855.265	486.05
855.448	559.78
855.631	-167.25
855.814	-136.53
855.997	408.23
856.181	90.79
856.364	-120.15
856.547	-218.45
856.73	281.25
856.913	174.76
857.096	-296.27
857.279	-120.15
857.462	72.36
857.645	387.75
857.828	96.94
858.011	-27.99
858.194	84.65
858.377	299.69
858.56	-206.16
858.743	-56.66
858.926	-38.23
859.109	250.53
859.292	-210.26
859.475	-222.55
859.658	490.15
859.841	322.21
860.023	-314.7
860.206	-232.79
860.389	197.29
860.572	410.28
860.755	-214.35
860.937	-103.76
861.12	127.66
861.303	174.76
861.486	-177.49
861.668	-118.1
861.851	393.89
862.034	240.3
862.216	53.93
862.399	-226.64
862.581	379.56
862.764	539.3
862.947	-124.24
863.129	-210.26
863.312	-93.52
863.494	539.3
863.677	225.96
863.859	-300.37
864.042	387.75
864.224	608.93
864.406	4.78
864.589	-361.81
864.771	254.63
864.954	-152.91
865.136	-181.59
865.318	-333.14
865.501	375.46
865.683	-275.79
865.865	-89.43
866.048	-128.34
866.23	264.87
866.412	103.08
866.594	-216.4
866.777	-81.24
866.959	264.87
867.141	39.59
867.323	123.56
867.505	119.46
867.687	150.18
867.869	225.96
868.052	-89.43
868.234	-202.07
868.416	76.46
868.598	201.38
868.78	-93.52
868.962	-298.32
869.144	371.36
869.326	330.41
869.508	-173.39
869.69	-200.02
869.872	19.11
870.054	383.65
870.236	-218.45
870.417	-195.92
870.599	39.59
870.781	520.87
870.963	19.11
871.145	-144.72
871.327	-124.24
871.508	359.08
871.69	-181.59
871.872	-132.44
872.054	92.84
872.235	279.21
872.417	-17.75
872.599	-251.22
872.78	565.92
872.962	168.62
873.144	-333.14
873.325	-99.67
873.507	432.8
873.689	215.72
873.87	-273.75
874.052	-56.66
874.233	66.22
874.415	397.99
874.596	-38.23
874.778	-255.31
874.959	139.94
875.141	408.23
875.322	-83.28
875.503	-159.06
875.685	273.06
875.866	-255.31
876.048	-148.82
876.229	-232.79
876.41	70.31
876.592	344.74
876.773	-177.49
876.954	-370
877.136	397.99
877.317	-42.32
877.498	-251.22
877.679	-101.72
877.86	185
878.042	234.15
878.223	-114
878.404	201.38
878.585	279.21
878.766	543.39
878.947	103.08
879.128	76.46
879.309	287.4
879.49	330.41
879.672	-36.18
879.853	-36.18
880.034	-79.19
880.215	88.75
880.396	-124.24
880.576	-134.48
880.757	-21.85
880.938	510.63
881.119	-263.51
881.3	-247.12
881.481	15.02
881.662	834.21
881.843	-277.84
882.023	-288.08
882.204	195.24
882.385	101.03
882.566	-179.54
882.747	-185.68
882.927	78.51
883.108	215.72
883.289	-259.41
883.469	6.83
883.65	-13.65
883.831	123.56
884.011	-56.66
884.192	-200.02
884.373	381.6
884.553	191.14
884.734	-87.38
884.914	121.51
885.095	879.26
885.275	473.76
885.456	80.55
885.636	-277.84
885.817	80.55
885.997	103.08
886.178	-312.66
886.358	-71
886.538	150.18
886.719	1092.25
886.899	-157.01
887.08	-19.8
887.26	430.76
887.44	-87.38
887.621	-322.9
887.801	-19.8
887.981	719.52
888.161	330.41
888.342	-40.28
888.522	-99.67
888.702	385.7
888.882	322.21
889.062	-23.89
889.242	-382.29
889.423	522.91
889.603	283.3
889.783	-99.67
889.963	-144.72
890.143	256.68
890.323	283.3
890.503	-97.62
890.683	-161.11
890.863	107.18
891.043	178.86
891.223	-27.99
891.403	88.75
891.583	31.4
891.763	182.95
891.943	-9.56
892.122	-189.78
892.302	211.62
892.482	12.97
892.662	12.97
892.842	-62.8
893.022	197.29
893.201	-38.23
893.381	25.26
893.561	-152.91
893.741	309.93
893.92	279.21
894.1	-71
894.28	-30.04
894.459	307.88
894.639	266.92
894.819	-124.24
894.998	-19.8
895.178	260.77
895.357	234.15
895.537	-93.52
895.716	-347.47
895.896	107.18
896.075	453.28
896.255	-140.63
896.434	-410.96
896.614	354.98
896.793	436.9
896.973	12.97
897.152	-3.41
897.331	240.3
897.511	338.6
897.69	-277.84
897.87	43.69
898.049	262.82
898.228	217.77
898.407	121.51
898.587	47.79
898.766	19.11
898.945	342.69
899.124	135.85
899.304	29.35
899.483	234.15
899.662	606.88
899.841	-138.58
900.02	-87.38
900.199	490.15
900.378	307.88
900.557	-157.01
900.737	-206.16
900.916	246.44
901.095	346.79
901.274	125.61
901.453	-206.16
901.632	-25.94
901.811	19.11
901.989	-83.28
902.168	-144.72
902.347	330.41
902.526	-111.96
902.705	-105.81
902.884	-81.24
903.063	557.73
903.242	412.32
903.42	-212.31
903.599	29.35
903.778	449.19
903.957	537.25
904.135	8.87
904.314	29.35
904.493	248.49
904.672	381.6
904.85	-50.52
905.029	-173.39
905.207	244.39
905.386	830.11
905.565	-173.39
905.743	-91.48
905.922	27.31
906.1	496.29
906.279	-222.55
906.457	-71
906.636	-17.75
906.814	80.55
906.993	-75.09
907.171	-216.4
907.35	240.3
907.528	363.17
907.707	176.81
907.885	-146.77
908.063	574.11
908.242	68.27
908.42	-120.15
908.598	-249.17
908.777	416.42
908.955	31.4
909.133	-19.8
909.311	-183.63
909.49	94.89
909.668	84.65
909.846	-77.14
910.024	-230.74
910.202	234.15
910.38	305.83
910.559	-228.69
910.737	-165.2
910.915	162.47
911.093	201.38
911.271	-34.13
911.449	66.22
911.627	301.73
911.805	688.8
911.983	-109.91
912.161	-64.85
912.339	191.14
912.517	465.57
912.695	37.55
912.872	-36.18
913.05	-93.52
913.228	338.6
913.406	-148.82
913.584	-120.15
913.762	393.89
913.939	-7.51
914.117	-79.19
914.295	-212.31
914.473	281.25
914.65	258.73
914.828	-126.29
915.006	-161.11
915.184	-19.8
915.361	250.53
915.539	2.73
915.716	121.51
915.894	256.68
916.072	340.65
916.249	113.32
916.427	27.31
916.604	-52.56
916.782	242.34
916.959	-214.35
917.137	-54.61
917.314	291.49
917.492	324.26
917.669	86.7
917.847	139.94
918.024	209.58
918.201	8.87
918.379	4.78
918.556	23.21
918.733	342.69
918.911	141.99
919.088	72.36
919.265	-44.37
919.442	293.54
919.62	176.81
919.797	-173.39
919.974	-140.63
920.151	266.92
920.328	205.48
920.506	-134.48
920.683	141.99
920.86	-66.9
921.037	2.73
921.214	6.83
921.391	-140.63
921.568	352.93
921.745	-3.41
921.922	-54.61
922.099	-134.48
922.276	494.24
922.453	287.4
922.63	-136.53
922.807	223.91
922.984	168.62
923.161	64.17
923.338	-109.91
923.514	-105.81
923.691	125.61
923.868	344.74
924.045	-38.23
924.222	-226.64
924.399	191.14
924.575	449.19
924.752	-13.65
924.929	6.83
925.105	230.06
925.282	19.11
925.459	-32.08
925.635	-46.42
925.812	174.76
925.989	51.88
926.165	62.12
926.342	-267.6
926.518	-183.63
926.695	207.53
926.871	-116.05
927.048	-138.58
927.224	330.41
927.401	92.84
927.577	2.73
927.754	-152.91
927.93	434.85
928.107	318.12
928.283	-116.05
928.459	55.98
928.636	326.31
928.812	53.93
928.988	-161.11
929.165	-197.97
929.341	47.79
929.517	242.34
929.693	268.97
929.87	-261.46
930.046	289.45
930.222	-7.51
930.398	-97.62
930.574	55.98
930.751	185
930.927	101.03
931.103	-17.75
931.279	53.93
931.455	10.92
931.631	248.49
931.807	-310.61
931.983	-142.68
932.159	-185.68
932.335	187.05
932.511	21.16
932.687	-93.52
932.863	174.76
933.039	176.81
933.215	-222.55
933.391	-202.07
933.566	-3.41
933.742	121.51
933.918	-5.46
934.094	-277.84
934.27	148.14
934.445	195.24
934.621	49.83
934.797	-142.68
934.973	391.84
935.148	271.01
935.324	-97.62
935.5	-281.94
935.675	445.09
935.851	264.87
936.027	-95.57
936.202	-140.63
936.378	250.53
936.553	119.46
936.729	330.41
936.904	-132.44
937.08	-87.38
937.255	25.26
937.431	-128.34
937.606	-161.11
937.782	60.07
937.957	197.29
938.133	-30.04
938.308	-200.02
938.483	152.23
938.659	-11.61
938.834	41.64
939.009	-142.68
939.185	80.55
939.36	-7.51
939.535	-386.38
939.71	33.45
939.886	385.7
940.061	254.63
940.236	141.99
940.411	-79.19
940.586	217.77
940.761	240.3
940.937	-25.94
941.112	-148.82
941.287	139.94
941.462	201.38
941.637	-218.45
941.812	-140.63
941.987	240.3
942.162	125.61
942.337	-71
942.512	-81.24
942.687	320.17
942.862	320.17
943.037	-271.7
943.212	-388.43
943.386	101.03
943.561	121.51
943.736	125.61
943.911	101.03
944.086	150.18
944.26	166.57
944.435	-46.42
944.61	-58.71
944.785	412.32
944.959	660.13
945.134	-11.61
945.309	-185.68
945.483	-15.7
945.658	531.11
945.833	-337.23
946.007	-247.12
946.182	412.32
946.357	-95.57
946.531	-167.25
946.706	-173.39
946.88	-271.7
947.055	178.86
947.229	-263.51
947.404	-249.17
947.578	381.6
947.752	12.97
947.927	-283.99
948.101	-238.93
948.276	207.53
948.45	137.9
948.624	2.73
948.799	-183.63
948.973	207.53
949.147	-216.4
949.321	-169.3
949.496	-89.43
949.67	309.93
949.844	64.17
950.018	-116.05
950.193	-128.34
950.367	600.74
950.541	92.84
950.715	-71
950.889	6.83
951.063	-42.32
951.237	285.35
951.411	-365.9
951.585	-433.49
951.759	172.71
951.933	70.31
952.107	-169.3
952.281	4.78
952.455	404.13
952.629	199.34
952.803	-169.3
952.977	-183.63
953.151	242.34
953.325	154.28
953.499	-83.28
953.672	-318.8
953.846	-200.02
954.02	-91.48
954.194	-157.01
954.368	-159.06
954.541	299.69
954.715	-17.75
954.889	-116.05
955.062	-216.4
955.236	17.07
955.41	-85.33
955.583	45.74
955.757	-324.94
955.93	123.56
956.104	-167.25
956.278	-224.59
956.451	-126.29
956.625	127.66
956.798	504.48
956.972	55.98
957.145	-245.07
957.319	35.5
957.492	60.07
957.665	55.98
957.839	-249.17
958.012	199.34
958.185	-62.8
958.359	-220.5
958.532	29.35
958.705	252.58
958.879	113.32
959.052	-128.34
959.225	-306.51
959.398	101.03
959.572	158.38
959.745	-240.98
959.918	-167.25
960.091	-30.04
960.264	236.2
960.438	-263.51
960.611	-236.88
960.784	187.05
960.957	-152.91
961.13	191.14
961.303	-304.46
961.476	55.98
961.649	311.97
961.822	-310.61
961.995	-161.11
962.168	266.92
962.341	51.88
962.514	-169.3
962.686	-228.69
962.859	107.18
963.032	209.58
963.205	-197.97
963.378	-349.52
963.551	117.42
963.723	31.4
963.896	-66.9
964.069	-30.04
964.242	35.5
964.414	303.78
964.587	-111.96
964.76	-101.72
964.932	82.6
965.105	109.22
965.278	-165.2
965.45	-345.42
965.623	90.79
965.795	156.33
965.968	-255.31
966.14	-169.3
966.313	-46.42
966.485	96.94
966.658	-197.97
966.83	-224.59
967.003	406.18
967.175	359.08
967.348	-175.44
967.52	-114
967.692	383.65
967.865	166.57
968.037	-181.59
968.209	21.16
968.382	84.65
968.554	305.83
968.726	-93.52
968.898	-204.11
969.071	70.31
969.243	256.68
969.415	-103.76
969.587	23.21
969.759	678.56
969.932	314.02
970.104	-107.86
970.276	-341.33
970.448	47.79
970.62	-21.85
970.792	-95.57
970.964	-38.23
971.136	477.86
971.308	174.76
971.48	-163.15
971.652	-165.2
971.824	371.36
971.996	-68.95
972.168	-50.52
972.339	-91.48
972.511	348.84
972.683	25.26
972.855	78.51
973.027	-25.94
973.199	47.79
973.37	215.72
973.542	10.92
973.714	49.83
973.886	146.09
974.057	238.25
974.229	-255.31
974.401	-159.06
974.572	-36.18
974.744	-271.7
974.915	-218.45
975.087	-132.44
975.259	428.71
975.43	15.02
975.602	-197.97
975.773	-265.55
975.945	-75.09
976.116	252.58
976.288	-251.22
976.459	-13.65
976.63	-36.18
976.802	236.2
976.973	-195.92
977.145	-79.19
977.316	551.59
977.487	389.8
977.659	-13.65
977.83	-9.56
978.001	469.67
978.172	113.32
978.344	-165.2
978.515	-171.35
978.686	-3.41
978.857	383.65
979.028	-126.29
979.2	-179.54
979.371	371.36
979.542	103.08
979.713	27.31
979.884	-421.2
980.055	-109.91
980.226	19.11
980.397	-189.78
980.568	-341.33
980.739	256.68
980.91	12.97
981.081	19.11
981.252	-259.41
981.423	277.16
981.594	330.41
981.765	-214.35
981.936	-32.08
982.106	107.18
982.277	361.13
982.448	-202.07
982.619	-46.42
982.79	-75.09
982.96	375.46
983.131	-71
983.302	-337.23
983.472	-36.18
983.643	119.46
983.814	-75.09
983.984	-267.6
984.155	2.73
984.326	297.64
984.496	-132.44
984.667	-167.25
984.837	-159.06
985.008	326.31
985.178	55.98
985.349	-195.92
985.519	98.99
985.69	-111.96
985.86	-163.15
986.031	-218.45
986.201	133.8
986.371	170.66
986.542	-200.02
986.712	-382.29
986.882	228.01
987.053	228.01
987.223	-232.79
987.393	-58.71
987.563	-27.99
987.734	133.8
987.904	164.52
988.074	-193.87
988.244	150.18
988.414	-25.94
988.585	-212.31
988.755	-71
988.925	74.41
989.095	428.71
989.265	-154.96
989.435	-83.28
989.605	271.01
989.775	150.18
989.945	135.85
990.115	-261.46
990.285	-13.65
990.455	127.66
990.625	-60.76
990.795	-230.74
990.965	377.51
991.134	-138.58
991.304	-187.73
991.474	-189.78
991.644	172.71
991.814	481.96
991.984	-290.13
992.153	-247.12
992.323	37.55
992.493	141.99
992.662	-433.49
992.832	-7.51
993.002	123.56
993.171	117.42
993.341	-324.94
993.511	-50.52
993.68	-48.47
993.85	262.82
994.019	-316.75
994.189	-240.98
994.358	121.51
994.528	-124.24
994.697	-453.97
994.867	-335.18
995.036	250.53
995.206	-40.28
995.375	-197.97
995.544	-79.19
995.714	70.31
995.883	-48.47
996.052	-5.46
996.222	-386.38
996.391	473.76
996.56	105.13
996.73	-230.74
996.899	-267.6
997.068	400.04
997.237	64.17
997.406	-294.22
997.576	-406.86
997.745	58.03
997.914	139.94
998.083	-484.69
998.252	-212.31
998.421	-30.04
998.59	-124.24
998.759	-341.33
998.928	-353.62
999.097	354.98
999.266	27.31
999.435	-103.76
999.604	-468.3
999.773	486.05
999.942	49.83
1000.111	-378.19
1000.28	-445.77
1000.448	-185.68
1000.617	-195.92
1000.786	-38.23
1000.955	-333.14
1001.124	150.18
1001.292	711.33
1001.461	-236.88
1001.63	-300.37
1001.798	371.36
1001.967	346.79
1002.136	-443.73
1002.304	-329.04
1002.473	137.9
1002.642	84.65
1002.81	-259.41
1002.979	-283.99
1003.147	213.67
1003.316	660.13
1003.484	-204.11
1003.653	-370
1003.821	340.65
1003.99	-17.75
1004.158	-181.59
1004.327	-218.45
1004.495	103.08
1004.663	-214.35
1004.832	-64.85
1005	-410.96
1005.168	137.9
1005.337	66.22
1005.505	-439.63
1005.673	-140.63
1005.842	152.23
1006.01	125.61
1006.178	-339.28
1006.346	-283.99
1006.514	139.94
1006.683	354.98
1006.851	-226.64
1007.019	-398.67
1007.187	-181.59
1007.355	-437.58
1007.523	-466.25
1007.691	-355.66
1007.859	-286.03
1008.027	324.26
1008.195	-214.35
1008.363	-390.48
1008.531	281.25
1008.699	-193.87
1008.867	-427.34
1009.035	-279.89
1009.203	324.26
1009.37	43.69
1009.538	-283.99
1009.706	144.04
1009.874	84.65
1010.042	-15.7
1010.209	-427.34
1010.377	-288.08
1010.545	256.68
1010.713	43.69
1010.88	-345.42
1011.048	-296.27
1011.216	-46.42
1011.383	344.74
1011.551	-386.38
1011.718	-388.43
1011.886	244.39
1012.054	-46.42
1012.221	-400.72
1012.389	-341.33
1012.556	-50.52
1012.724	481.96
1012.891	-197.97
1013.058	-476.49
1013.226	193.19
1013.393	305.83
1013.561	-535.89
1013.728	-410.96
1013.895	123.56
1014.063	172.71
1014.23	-374.1
1014.397	-345.42
1014.565	293.54
1014.732	-128.34
1014.899	-298.32
1015.066	-423.25
1015.233	121.51
1015.401	215.72
1015.568	-185.68
1015.735	-216.4
1015.902	82.6
1016.069	191.14
1016.236	-347.47
1016.403	-353.62
1016.57	-109.91
1016.737	285.35
1016.904	-230.74
1017.071	-398.67
1017.238	-152.91
1017.405	248.49
1017.572	-404.82
1017.739	-9.56
1017.906	105.13
1018.073	258.73
1018.24	-345.42
1018.407	-300.37
1018.573	363.17
1018.74	-71
1018.907	-236.88
1019.074	-431.44
1019.241	268.97
1019.407	4.78
1019.574	-283.99
1019.741	-523.6
1019.907	174.76
1020.074	221.86
1020.241	-513.36
1020.407	-433.49
1020.574	207.53
1020.74	117.42
1020.907	-286.03
1021.073	-337.23
1021.24	539.3
1021.406	438.95
1021.573	-341.33
1021.739	-329.04
1021.906	203.43
1022.072	55.98
1022.239	-279.89
1022.405	-300.37
1022.571	12.97
1022.738	-161.11
1022.904	-343.38
1023.07	-271.7
1023.237	60.07
1023.403	346.79
1023.569	-277.84
1023.735	-269.65
1023.902	129.7
1024.068	217.77
1024.234	-396.62
1024.4	-302.42
1024.566	111.27
1024.732	281.25
1024.898	-308.56
1025.065	-507.21
1025.231	242.34
1025.397	-79.19
1025.563	-333.14
1025.729	-324.94
1025.895	-251.22
1026.061	-189.78
1026.227	-429.39
1026.392	-300.37
1026.558	354.98
1026.724	117.42
1026.89	-324.94
1027.056	-269.65
1027.222	141.99
1027.388	-83.28
1027.553	-306.51
1027.719	-382.29
1027.885	432.8
1028.051	232.1
1028.216	-505.17
1028.382	-275.79
1028.548	193.19
1028.713	-116.05
1028.879	-417.1
1029.045	-136.53
1029.21	397.99
1029.376	385.7
1029.541	-265.55
1029.707	-294.22
1029.873	195.24
1030.038	195.24
1030.204	-304.46
1030.369	-232.79
1030.534	256.68
1030.7	-1.37
1030.865	-247.12
1031.031	-343.38
1031.196	213.67
1031.361	182.95
1031.527	-361.81
1031.692	-390.48
1031.857	-279.89
1032.023	219.82
1032.188	-367.95
1032.353	-296.27
1032.518	400.04
1032.684	125.61
1032.849	-400.72
1033.014	-185.68
1033.179	170.66
1033.344	240.3
1033.509	-202.07
1033.674	-322.9
1033.839	217.77
1034.004	307.88
1034.17	-290.13
1034.335	-398.67
1034.5	-36.18
1034.664	21.16
1034.829	-341.33
1034.994	-247.12
1035.159	174.76
1035.324	170.66
1035.489	-292.18
1035.654	-298.32
1035.819	359.08
1035.984	178.86
1036.148	-234.83
1036.313	-304.46
1036.478	354.98
1036.643	70.31
1036.807	-316.75
1036.972	-353.62
1037.137	449.19
1037.301	113.32
1037.466	-406.86
1037.631	-157.01
1037.795	330.41
1037.96	111.27
1038.124	-154.96
1038.289	-355.66
1038.454	289.45
1038.618	217.77
1038.783	-222.55
1038.947	-247.12
1039.111	64.17
1039.276	35.5
1039.44	-290.13
1039.605	215.72
1039.769	-73.04
1039.933	156.33
1040.098	-224.59
1040.262	-79.19
1040.426	334.5
1040.591	266.92
1040.755	-310.61
1040.919	-322.9
1041.083	201.38
1041.248	27.31
1041.412	-425.29
1041.576	-318.8
1041.74	19.11
1041.904	258.73
1042.068	-351.57
1042.232	-177.49
1042.397	381.6
1042.561	209.58
1042.725	-415.06
1042.889	2.73
1043.053	232.1
1043.217	207.53
1043.381	-122.2
1043.544	-380.24
1043.708	424.61
1043.872	-130.39
1044.036	-521.55
1044.2	-439.63
1044.364	307.88
1044.528	457.38
1044.691	2626.18
1044.855	-320.85
1045.019	365.22
1045.183	199.34
1045.346	-243.03
1045.51	-384.34
1045.674	311.97
1045.837	279.21
1046.001	-208.21
1046.165	-243.03
1046.328	621.22
1046.492	234.15
1046.655	-40.28
1046.819	-165.2
1046.983	-15.7
1047.146	178.86
1047.31	-169.3
1047.473	-435.53
1047.636	109.22
1047.8	-50.52
1047.963	-175.44
1048.127	-306.51
1048.29	-138.58
