Data from Ink_Intensity_USB4F045381__69__00069.txt Node

Date: Mon Jul 17 10:38:02 EDT 2023
User: mmckonesweet
Spectrometer: USB4F04538
Trigger mode: 4
Integration Time (sec): 9.000000E-1
Scans to average: 1
Electric dark correction enabled: true
Nonlinearity correction enabled: false
Boxcar width: 0
XAxis mode: Wavelengths
Number of Pixels in Spectrum: 3648
>>>>>Begin Spectral Data<<<<<
345.52	-1034.91
345.736	-1034.91
345.952	-1034.91
346.168	-1004.19
346.384	-965.28
346.6	-70.31
346.816	-217.77
347.032	-125.61
347.248	331.09
347.464	-228.01
347.68	-156.33
347.896	134.48
348.112	326.99
348.328	-141.99
348.544	-82.6
348.76	-21.16
348.975	251.22
349.191	-144.04
349.407	-205.48
349.623	58.71
349.839	-60.07
350.055	-103.08
350.27	23.89
350.486	179.54
350.702	302.42
350.918	238.93
351.133	-225.96
351.349	93.52
351.565	390.48
351.781	-197.29
351.996	46.42
352.212	298.32
352.428	-121.51
352.644	-199.34
352.859	-268.97
353.075	314.7
353.291	62.8
353.506	-49.83
353.722	-275.11
353.938	-98.99
354.153	509.26
354.369	111.96
354.584	-287.4
354.8	191.83
355.016	-299.69
355.231	-275.11
355.447	-101.03
355.662	128.34
355.878	867.66
356.093	-365.22
356.309	-78.51
356.524	-213.67
356.74	230.74
356.955	-295.59
357.171	-119.46
357.386	191.83
357.602	-283.3
357.817	-158.38
358.033	-182.95
358.248	324.94
358.464	89.43
358.679	-152.23
358.895	-283.3
359.11	-12.97
359.325	324.94
359.541	5.46
359.756	-53.93
359.972	-287.4
360.187	175.44
360.402	-279.21
360.618	-189.1
360.833	976.2
361.048	148.82
361.264	-185
361.479	-164.52
361.694	-4.78
361.909	202.07
362.125	-164.52
362.34	-199.34
362.555	159.06
362.77	83.28
362.986	-301.73
363.201	-195.24
363.416	185.68
363.631	-68.27
363.847	-193.19
364.062	-107.18
364.277	68.95
364.492	109.91
364.707	-182.95
364.922	-477.86
365.138	267.6
365.353	306.51
365.568	-238.25
365.783	-107.18
365.998	19.8
366.213	642.38
366.428	-240.3
366.643	1.37
366.858	232.79
367.073	150.87
367.288	-119.46
367.503	-262.82
367.718	-31.4
367.933	318.8
368.148	-324.26
368.363	-82.6
368.578	-74.41
368.793	404.82
369.008	-180.9
369.223	-281.25
369.438	167.25
369.653	341.33
369.868	-271.01
370.083	-256.68
370.298	134.48
370.513	353.62
370.728	7.51
370.943	-207.53
371.157	-250.53
371.372	525.65
371.587	-352.93
371.802	-242.34
372.017	27.99
372.232	415.05
372.446	-47.79
372.661	-238.25
372.876	173.39
373.091	146.77
373.306	-160.42
373.52	-228.01
373.735	-295.59
373.95	458.06
374.165	-135.85
374.379	-125.61
374.594	-139.94
374.809	23.89
375.023	50.52
375.238	-238.25
375.453	281.94
375.667	-303.78
375.882	-242.34
376.097	-283.3
376.311	-29.35
376.526	52.56
376.741	-309.93
376.955	-21.16
377.17	476.49
377.384	501.07
377.599	-58.03
377.813	-252.58
378.028	548.17
378.242	316.75
378.457	-12.97
378.672	-387.75
378.886	27.99
379.101	-94.89
379.315	-397.99
379.53	-189.1
379.744	126.29
379.958	157.01
380.173	-150.18
380.387	-225.96
380.602	81.24
380.816	-119.46
381.031	-234.15
381.245	-152.23
381.459	136.53
381.674	2657.58
381.888	-287.4
382.103	-2.73
382.317	-250.53
382.531	484.69
382.746	-88.75
382.96	-266.92
383.174	-137.9
383.388	370
383.603	23.89
383.817	-365.22
384.031	50.52
384.246	468.3
384.46	-74.41
384.674	335.18
384.888	42.32
385.103	9.56
385.317	-291.49
385.531	-123.56
385.745	370
385.959	191.83
386.174	-258.73
386.388	-248.49
386.602	1.37
386.816	-199.34
387.03	-115.37
387.244	-203.43
387.458	93.52
387.672	314.7
387.887	-330.41
388.101	-279.21
388.315	308.56
388.529	163.15
388.743	-195.24
388.957	-273.06
389.171	308.56
389.385	-201.38
389.599	-197.29
389.813	38.23
390.027	152.91
390.241	607.56
390.455	-168.62
390.669	-117.42
390.883	-164.52
391.097	275.79
391.311	-2.73
391.525	-199.34
391.738	187.73
391.952	130.39
392.166	-92.84
392.38	-275.11
392.594	206.16
392.808	347.47
393.022	-58.03
393.236	-84.65
393.449	81.24
393.663	171.35
393.877	-326.31
394.091	-135.85
394.305	-217.77
394.518	-168.62
394.732	-316.07
394.946	-189.1
395.16	400.72
395.373	-12.97
395.587	-320.17
395.801	-260.77
396.015	255.31
396.228	140.63
396.442	-266.92
396.656	-441
396.869	240.98
397.083	443.73
397.297	-37.55
397.51	-185
397.724	335.18
397.938	19.8
398.151	-311.97
398.365	-363.17
398.578	200.02
398.792	396.62
399.005	-51.88
399.219	-80.55
399.433	52.56
399.646	228.69
399.86	-0.68
400.073	-25.26
400.287	187.73
400.5	23.89
400.714	-39.59
400.927	-146.09
401.141	216.4
401.354	1064.26
401.567	136.53
401.781	-246.44
401.994	214.35
402.208	490.83
402.421	-105.13
402.635	-103.08
402.848	-10.92
403.061	269.65
403.275	-76.46
403.488	-232.1
403.701	427.34
403.915	238.93
404.128	-43.69
404.341	-268.97
404.555	183.63
404.768	-43.69
404.981	-47.79
405.195	-221.86
405.408	433.49
405.621	111.96
405.834	-82.6
406.048	-240.3
406.261	347.47
406.474	441.68
406.687	-291.49
406.9	-98.99
407.114	-8.87
407.327	34.13
407.54	-336.55
407.753	-404.13
407.966	-158.38
408.179	138.58
408.392	-281.25
408.605	-389.8
408.819	187.73
409.032	177.49
409.245	-248.49
409.458	-8.87
409.671	226.64
409.884	210.26
410.097	-389.8
410.31	-35.5
410.523	116.05
410.736	-64.17
410.949	-51.88
411.162	-170.66
411.375	429.39
411.588	283.99
411.801	50.52
412.014	-223.91
412.227	48.47
412.44	-68.27
412.653	-201.38
412.865	-10.92
413.078	265.55
413.291	114
413.504	-105.13
413.717	-277.16
413.93	224.59
414.143	-168.62
414.356	-127.66
414.568	-412.32
414.781	208.21
414.994	-8.87
415.207	-60.07
415.42	-139.94
415.632	232.79
415.845	431.44
416.058	-404.13
416.271	-260.77
416.483	-66.22
416.696	447.82
416.909	-242.34
417.121	-244.39
417.334	167.25
417.547	490.83
417.759	-262.82
417.972	-334.5
418.185	-170.66
418.397	263.51
418.61	-219.82
418.823	-219.82
419.035	337.23
419.248	17.75
419.46	-139.94
419.673	-105.13
419.885	56.66
420.098	-6.83
420.311	-119.46
420.523	-344.74
420.736	175.44
420.948	38.23
421.161	-199.34
421.373	-406.18
421.586	107.86
421.798	-98.99
422.01	-336.55
422.223	-68.27
422.435	-90.79
422.648	144.72
422.86	-185
423.073	-279.21
423.285	302.42
423.497	-277.16
423.71	-230.06
423.922	-193.19
424.134	130.39
424.347	363.86
424.559	-86.7
424.771	144.72
424.984	-78.51
425.196	150.87
425.408	-361.13
425.621	-354.98
425.833	240.98
426.045	283.99
426.257	-289.45
426.47	-156.33
426.682	75.09
426.894	95.57
427.106	-232.1
427.318	-148.14
427.531	-92.84
427.743	163.15
427.955	-219.82
428.167	265.55
428.379	161.11
428.591	-51.88
428.804	-156.33
429.016	-254.63
429.228	-119.46
429.44	97.62
429.652	-66.22
429.864	-365.22
430.076	-58.03
430.288	-70.31
430.5	-166.57
430.712	-191.14
430.924	308.56
431.136	44.37
431.348	-418.47
431.56	-301.73
431.772	-8.87
431.984	-129.7
432.196	-223.91
432.408	-254.63
432.62	-19.11
432.832	68.95
433.044	21.84
433.256	-209.58
433.468	204.11
433.679	-324.26
433.891	-309.93
434.103	-21.16
434.315	337.23
434.527	126.29
434.739	-94.89
434.95	-246.44
435.162	183.63
435.374	-162.47
435.586	-150.18
435.798	-252.58
436.009	-289.45
436.221	-70.31
436.433	-219.82
436.645	-176.81
436.856	-180.9
437.068	253.27
437.28	-305.83
437.491	40.28
437.703	111.96
437.915	91.48
438.126	-225.96
438.338	-2.73
438.55	-47.79
438.761	81.24
438.973	-223.91
439.184	-176.81
439.396	-84.65
439.608	261.46
439.819	-389.8
440.031	-62.12
440.242	195.92
440.454	208.21
440.665	-158.38
440.877	-144.04
441.088	122.2
441.3	-115.37
441.511	-397.99
441.723	-279.21
441.934	105.81
442.146	7.51
442.357	-66.22
442.569	79.19
442.78	30.04
442.991	382.29
443.203	124.24
443.414	-297.64
443.626	386.38
443.837	-82.6
444.048	-316.07
444.26	-320.17
444.471	77.14
444.682	169.3
444.894	-397.99
445.105	-309.93
445.316	150.87
445.528	212.31
445.739	-213.67
445.95	-254.63
446.161	114
446.373	298.32
446.584	-271.01
446.795	-180.9
447.006	236.88
447.217	458.06
447.429	-373.41
447.64	-258.73
447.851	306.51
448.062	-25.26
448.273	-389.8
448.484	-178.86
448.695	130.39
448.907	-53.93
449.118	-174.76
449.329	32.08
449.54	-164.52
449.751	-275.11
449.962	-203.43
450.173	-195.24
450.384	195.92
450.595	269.65
450.806	-201.38
451.017	-168.62
451.228	288.08
451.439	257.36
451.65	-268.97
451.861	-453.28
452.072	-180.9
452.283	-35.5
452.494	-17.07
452.705	-242.34
452.915	331.09
453.126	193.87
453.337	-201.38
453.548	-314.02
453.759	329.04
453.97	431.44
454.181	11.61
454.391	-234.15
454.602	7.51
454.813	142.68
455.024	-187.05
455.235	-234.15
455.445	105.81
455.656	216.4
455.867	-29.35
456.078	-236.2
456.288	-47.79
456.499	120.15
456.71	-320.17
456.921	48.47
457.131	103.76
457.342	73.04
457.553	-170.66
457.763	-217.77
457.974	197.97
458.184	167.25
458.395	-254.63
458.606	-307.88
458.816	193.87
459.027	417.1
459.237	-86.7
459.448	-422.56
459.659	267.6
459.869	507.21
460.08	-455.33
460.29	-174.76
460.501	499.02
460.711	-66.22
460.922	-389.8
461.132	-246.44
461.343	720.2
461.553	-301.73
461.764	-373.41
461.974	-279.21
462.184	177.49
462.395	152.91
462.605	-168.62
462.816	-322.21
463.026	36.18
463.236	206.16
463.447	-281.25
463.657	-258.73
463.867	257.36
464.078	-27.31
464.288	-178.86
464.498	-357.03
464.709	27.99
464.919	-31.4
465.129	-160.42
465.339	-266.92
465.55	46.42
465.76	144.72
465.97	-182.95
466.18	-271.01
466.391	148.82
466.601	152.91
466.811	-215.72
467.021	-367.27
467.231	101.72
467.441	240.98
467.651	-223.91
467.862	-467.62
468.072	7.51
468.282	339.28
468.492	-211.62
468.702	-180.9
468.912	95.57
469.122	550.22
469.332	101.72
469.542	-273.06
469.752	122.2
469.962	111.96
470.172	-297.64
470.382	-352.93
470.592	118.1
470.802	240.98
471.012	-141.99
471.222	-289.45
471.432	140.63
471.642	103.76
471.852	-113.32
472.062	-262.82
472.272	-64.17
472.482	-217.77
472.691	-314.02
472.901	-324.26
473.111	-33.45
473.321	478.54
473.531	-332.45
473.741	-197.29
473.95	154.96
474.16	167.25
474.37	-117.42
474.58	-377.51
474.79	494.93
474.999	306.51
475.209	-240.3
475.419	-246.44
475.628	-51.88
475.838	255.31
476.048	-191.14
476.258	-340.65
476.467	302.42
476.677	-84.65
476.886	-4.78
477.096	-289.45
477.306	-166.57
477.515	286.03
477.725	-133.8
477.935	-180.9
478.144	353.62
478.354	-96.94
478.563	-158.38
478.773	-221.86
478.982	212.31
479.192	161.11
479.401	-125.61
479.611	-361.13
479.82	-139.94
480.03	42.32
480.239	-359.08
480.449	-361.13
480.658	329.04
480.868	-221.86
481.077	-189.1
481.287	-199.34
481.496	97.62
481.705	324.94
481.915	46.42
482.124	17.75
482.333	68.95
482.543	312.66
482.752	-207.53
482.961	-332.45
483.171	165.2
483.38	-19.11
483.589	-295.59
483.799	-340.65
484.008	-21.16
484.217	159.06
484.426	-271.01
484.636	-326.31
484.845	25.94
485.054	-346.79
485.263	93.52
485.472	-217.77
485.682	419.15
485.891	52.56
486.1	-381.6
486.309	-252.58
486.518	193.87
486.727	322.9
486.936	-324.26
487.146	-162.47
487.355	384.34
487.564	-223.91
487.773	-336.55
487.982	-281.25
488.191	-2.73
488.4	-84.65
488.609	-291.49
488.818	-254.63
489.027	468.3
489.236	347.47
489.445	-185
489.654	-309.93
489.863	142.68
490.072	-21.16
490.281	68.95
490.49	-248.49
490.698	341.33
490.907	339.28
491.116	-279.21
491.325	-395.94
491.534	234.83
491.743	167.25
491.952	-133.8
492.16	-344.74
492.369	52.56
492.578	202.07
492.787	-144.04
492.996	-185
493.204	-164.52
493.413	458.06
493.622	-490.15
493.831	-463.52
494.039	433.49
494.248	-273.06
494.457	-207.53
494.665	-504.48
494.874	177.49
495.083	535.89
495.291	-215.72
495.5	-291.49
495.709	169.3
495.917	-19.11
496.126	-191.14
496.335	-260.77
496.543	-105.13
496.752	62.8
496.96	-53.93
497.169	-418.47
497.377	-17.07
497.586	265.55
497.794	-209.58
498.003	-498.34
498.211	44.37
498.42	359.76
498.628	-156.33
498.837	-359.08
499.045	191.83
499.254	32.08
499.462	-271.01
499.671	-287.4
499.879	359.76
500.087	265.55
500.296	-373.41
500.504	-248.49
500.713	71
500.921	472.4
501.129	-342.69
501.338	-174.76
501.546	75.09
501.754	-4.78
501.962	-248.49
502.171	-357.03
502.379	54.61
502.587	437.58
502.795	-166.57
503.004	-258.73
503.212	7.51
503.42	224.59
503.628	-221.86
503.837	-164.52
504.045	193.87
504.253	380.24
504.461	-357.03
504.669	-420.52
504.877	93.52
505.085	376.14
505.294	-400.04
505.502	-66.22
505.71	-8.87
505.918	200.02
506.126	-291.49
506.334	-328.36
506.542	-58.03
506.75	128.34
506.958	-266.92
507.166	-168.62
507.374	-90.79
507.582	406.86
507.79	-135.85
507.998	-322.21
508.206	87.38
508.414	40.28
508.622	-314.02
508.83	-174.76
509.037	286.03
509.245	-84.65
509.453	-363.17
509.661	-311.97
509.869	163.15
510.077	-17.07
510.285	-172.71
510.492	-578.21
510.7	617.8
510.908	-135.85
511.116	-256.68
511.324	-375.46
511.531	-66.22
511.739	77.14
511.947	-176.81
512.155	48.47
512.362	50.52
512.57	-217.77
512.778	-348.84
512.985	-393.89
513.193	212.31
513.401	324.94
513.608	-234.15
513.816	-295.59
514.024	101.72
514.231	232.79
514.439	-268.97
514.646	-254.63
514.854	204.11
515.061	279.89
515.269	-260.77
515.477	-305.83
515.684	-230.06
515.892	120.15
516.099	-432.8
516.307	-441
516.514	126.29
516.722	374.1
516.929	-240.3
517.136	-391.84
517.344	335.18
517.551	138.58
517.759	-309.93
517.966	-172.71
518.173	-82.6
518.381	27.99
518.588	-158.38
518.796	-348.84
519.003	105.81
519.21	-29.35
519.418	-240.3
519.625	-10.92
519.832	-17.07
520.039	134.48
520.247	-475.81
520.454	-260.77
520.661	236.88
520.868	93.52
521.076	-299.69
521.283	-217.77
521.49	689.48
521.697	97.62
521.904	-295.59
522.112	-211.62
522.319	202.07
522.526	122.2
522.733	-346.79
522.94	-369.32
523.147	-94.89
523.354	226.64
523.561	-414.37
523.768	-205.48
523.975	202.07
524.183	-29.35
524.39	-217.77
524.597	-508.58
524.804	-45.74
525.011	-264.87
525.218	-350.89
525.425	-281.25
525.632	322.9
525.838	-215.72
526.045	-316.07
526.252	-291.49
526.459	990.53
526.666	828.74
526.873	-414.37
527.08	-316.07
527.287	324.94
527.494	232.79
527.701	-436.9
527.907	-295.59
528.114	50.52
528.321	23.89
528.528	-158.38
528.735	-357.03
528.941	-193.19
529.148	-176.81
529.355	-307.88
529.562	-328.36
529.768	337.23
529.975	-129.7
530.182	-254.63
530.388	-357.03
530.595	228.69
530.802	-228.01
531.008	-133.8
531.215	-287.4
531.422	689.48
531.628	783.69
531.835	-197.29
532.042	-191.14
532.248	-160.42
532.455	-2.73
532.661	-303.78
532.868	-363.17
533.074	60.76
533.281	165.2
533.487	-322.21
533.694	-393.89
533.9	-252.58
534.107	148.82
534.313	-350.89
534.52	-484
534.726	294.22
534.933	519.5
535.139	-469.67
535.345	-447.14
535.552	83.28
535.758	-45.74
535.965	-273.06
536.171	-320.17
536.377	128.34
536.584	277.84
536.79	-316.07
536.996	-213.67
537.203	91.48
537.409	146.77
537.615	-191.14
537.821	-94.89
538.028	193.87
538.234	193.87
538.44	-301.73
538.646	-238.25
538.853	77.14
539.059	-19.11
539.265	48.47
539.471	-555.68
539.677	148.82
539.883	-21.16
540.09	-234.15
540.296	93.52
540.502	-137.9
540.708	-172.71
540.914	-164.52
541.12	-379.56
541.326	157.01
541.532	-43.69
541.738	-256.68
541.944	-223.91
542.15	236.88
542.356	-2.73
542.562	-408.23
542.768	-207.53
542.974	601.42
543.18	449.87
543.386	-332.45
543.592	-516.77
543.798	365.9
544.004	251.22
544.21	-357.03
544.415	-248.49
544.621	-74.41
544.827	159.06
545.033	-387.75
545.239	-103.08
545.445	-250.53
545.651	32.08
545.856	-254.63
546.062	-336.55
546.268	-144.04
546.474	23.89
546.679	-285.35
546.885	-326.31
547.091	-131.75
547.297	382.29
547.502	-262.82
547.708	-412.32
547.914	-135.85
548.119	122.2
548.325	-402.08
548.531	-412.32
548.736	388.43
548.942	-164.52
549.147	-275.11
549.353	-53.93
549.559	240.98
549.764	126.29
549.97	-285.35
550.175	-295.59
550.381	114
550.586	-162.47
550.792	-240.3
550.997	-266.92
551.203	60.76
551.408	218.45
551.614	-324.26
551.819	-365.22
552.025	451.92
552.23	517.45
552.435	-391.84
552.641	-111.27
552.846	-219.82
553.052	224.59
553.257	-86.7
553.462	-307.88
553.668	-195.24
553.873	185.68
554.078	-361.13
554.283	-430.76
554.489	7.51
554.694	-4.78
554.899	-436.9
555.105	-168.62
555.31	97.62
555.515	122.2
555.72	-254.63
555.925	-426.66
556.131	138.58
556.336	-60.07
556.541	-428.71
556.746	-438.95
556.951	216.4
557.156	372.05
557.361	-207.53
557.567	-238.25
557.772	435.53
557.977	232.79
558.182	-297.64
558.387	-297.64
558.592	-103.08
558.797	273.75
559.002	-250.53
559.207	-166.57
559.412	-37.55
559.617	468.3
559.822	-357.03
560.027	-369.32
560.232	68.95
560.437	185.68
560.642	-492.2
560.847	-314.02
561.051	3.41
561.256	44.37
561.461	-246.44
561.666	-447.14
561.871	120.15
562.076	152.91
562.281	-283.3
562.485	-397.99
562.69	107.86
562.895	220.5
563.1	-344.74
563.305	-330.41
563.509	312.66
563.714	470.35
563.919	-340.65
564.123	-309.93
564.328	-62.12
564.533	339.28
564.737	-365.22
564.942	-357.03
565.147	363.86
565.351	609.61
565.556	-238.25
565.761	-252.58
565.965	17.75
566.17	-268.97
566.374	-391.84
566.579	-463.52
566.784	38.23
566.988	-119.46
567.193	-479.91
567.397	-324.26
567.602	-322.21
567.806	-133.8
568.011	-328.36
568.215	-307.88
568.42	-121.51
568.624	-37.55
568.828	-336.55
569.033	-82.6
569.237	120.15
569.442	44.37
569.646	-373.41
569.85	-266.92
570.055	-62.12
570.259	64.85
570.463	-107.18
570.668	-287.4
570.872	-12.97
571.076	-23.21
571.281	-131.75
571.485	-232.1
571.689	79.19
571.893	169.3
572.098	-182.95
572.302	-348.84
572.506	159.06
572.71	21.84
572.914	-225.96
573.119	-264.87
573.323	378.19
573.527	398.67
573.731	-318.12
573.935	-385.7
574.139	66.9
574.343	-182.95
574.547	-277.16
574.751	-254.63
574.955	359.76
575.159	304.46
575.364	-316.07
575.568	-400.04
575.772	-4.78
575.976	224.59
576.18	-256.68
576.383	-461.48
576.587	253.27
576.791	130.39
576.995	-488.1
577.199	-500.39
577.403	185.68
577.607	234.83
577.811	-430.76
578.015	-205.48
578.219	36.18
578.422	163.15
578.626	-209.58
578.83	-215.72
579.034	263.51
579.238	36.18
579.442	-305.83
579.645	44.37
579.849	-96.94
580.053	-4.78
580.257	-232.1
580.46	-129.7
580.664	290.13
580.868	114
581.071	-55.98
581.275	-164.52
581.479	-264.87
581.682	138.58
581.886	-311.97
582.09	-246.44
582.293	249.17
582.497	171.35
582.7	-117.42
582.904	-326.31
583.107	-60.07
583.311	-86.7
583.515	-193.19
583.718	-137.9
583.922	109.91
584.125	464.21
584.329	-305.83
584.532	-123.56
584.735	322.9
584.939	38.23
585.142	-408.23
585.346	-340.65
585.549	75.09
585.753	-121.51
585.956	-234.15
586.159	-180.9
586.363	398.67
586.566	71
586.769	-348.84
586.973	-389.8
587.176	212.31
587.379	232.79
587.582	27.99
587.786	-39.59
587.989	-33.45
588.192	601.42
588.395	-195.24
588.599	-17.07
588.802	126.29
589.005	152.91
589.208	-211.62
589.411	-213.67
589.615	236.88
589.818	347.47
590.021	-139.94
590.224	-176.81
590.427	316.75
590.63	85.33
590.833	-422.56
591.036	-311.97
591.239	-131.75
591.442	-109.22
591.645	-43.69
591.848	-379.56
592.051	36.18
592.254	179.54
592.457	-158.38
592.66	-191.14
592.863	-84.65
593.066	85.33
593.269	-381.6
593.472	-195.24
593.675	-162.47
593.878	167.25
594.081	-166.57
594.284	-393.89
594.486	107.86
594.689	11.61
594.892	-154.28
595.095	-119.46
595.298	130.39
595.5	-70.31
595.703	-148.14
595.906	-74.41
596.109	314.7
596.311	230.74
596.514	-502.43
596.717	-271.01
596.92	259.41
597.122	109.91
597.325	-492.2
597.528	-287.4
597.73	255.31
597.933	36.18
598.136	-256.68
598.338	-529.06
598.541	105.81
598.743	236.88
598.946	-281.25
599.148	-246.44
599.351	208.21
599.554	236.88
599.756	-94.89
599.959	-248.49
600.161	191.83
600.363	554.32
600.566	-17.07
600.768	-174.76
600.971	451.92
601.173	200.02
601.376	-297.64
601.578	-230.06
601.78	42.32
601.983	511.31
602.185	-332.45
602.388	-86.7
602.59	36.18
602.792	-141.99
602.995	-17.07
603.197	-242.34
603.399	283.99
603.601	36.18
603.804	-242.34
604.006	-340.65
604.208	7.51
604.41	-359.08
604.613	-84.65
604.815	-258.73
605.017	523.6
605.219	-164.52
605.421	-0.68
605.623	-250.53
605.826	326.99
606.028	345.42
606.23	-238.25
606.432	-273.06
606.634	398.67
606.836	367.95
607.038	-387.75
607.24	-113.32
607.442	60.76
607.644	40.28
607.846	-133.8
608.048	-324.26
608.25	277.84
608.452	-185
608.654	-260.77
608.856	-484
609.058	-70.31
609.26	56.66
609.462	-119.46
609.664	-205.48
609.866	464.21
610.067	251.22
610.269	-78.51
610.471	-285.35
610.673	-144.04
610.875	195.92
611.077	-373.41
611.278	-111.27
611.48	52.56
611.682	445.77
611.884	-154.28
612.085	-191.14
612.287	-264.87
612.489	140.63
612.69	-381.6
612.892	-201.38
613.094	326.99
613.295	109.91
613.497	-348.84
613.699	-254.63
613.9	283.99
614.102	322.9
614.304	-187.05
614.505	-322.21
614.707	-78.51
614.908	93.52
615.11	-395.94
615.311	-111.27
615.513	157.01
615.714	169.3
615.916	-357.03
616.117	-217.77
616.319	-8.87
616.52	163.15
616.722	-244.39
616.923	-271.01
617.124	220.5
617.326	181.59
617.527	-60.07
617.729	-8.87
617.93	177.49
618.131	210.26
618.333	-283.3
618.534	-215.72
618.735	-219.82
618.937	376.14
619.138	-377.51
619.339	-254.63
619.54	52.56
619.742	-96.94
619.943	-98.99
620.144	-232.1
620.345	232.79
620.546	279.89
620.748	-275.11
620.949	-162.47
621.15	54.61
621.351	107.86
621.552	-246.44
621.753	-414.37
621.954	-273.06
622.155	472.4
622.356	-316.07
622.558	-88.75
622.759	-43.69
622.96	492.88
623.161	-121.51
623.362	-234.15
623.563	52.56
623.764	87.38
623.965	-205.48
624.166	-103.08
624.366	38.23
624.567	91.48
624.768	-486.05
624.969	-266.92
625.17	-86.7
625.371	202.07
625.572	-109.22
625.773	-336.55
625.973	269.65
626.174	177.49
626.375	-225.96
626.576	-131.75
626.777	171.35
626.977	552.27
627.178	-252.58
627.379	-135.85
627.58	-17.07
627.78	89.43
627.981	-164.52
628.182	-121.51
628.382	312.66
628.583	-348.84
628.784	-320.17
628.984	3.41
629.185	253.27
629.386	324.94
629.586	-160.42
629.787	-342.69
629.987	124.24
630.188	38.23
630.388	-144.04
630.589	-150.18
630.79	597.32
630.99	19.8
631.191	-176.81
631.391	-156.33
631.591	204.11
631.792	472.4
631.992	-76.46
632.193	-193.19
632.393	331.09
632.594	36.18
632.794	-209.58
632.994	-125.61
633.195	87.38
633.395	79.19
633.595	-289.45
633.796	11.61
633.996	-127.66
634.196	300.37
634.397	-316.07
634.597	-131.75
634.797	-207.53
634.997	357.71
635.198	44.37
635.398	-363.17
635.598	171.35
635.798	388.43
635.998	200.02
636.199	-277.16
636.399	-107.18
636.599	-182.95
636.799	-258.73
636.999	109.91
637.199	181.59
637.399	306.51
637.599	-238.25
637.799	-86.7
637.999	-60.07
638.199	406.86
638.399	-303.78
638.599	-207.53
638.799	175.44
638.999	589.13
639.199	-62.12
639.399	-150.18
639.599	423.25
639.799	-207.53
639.999	-246.44
640.199	-336.55
640.399	21.84
640.599	128.34
640.799	-166.57
640.998	-31.4
641.198	408.91
641.398	171.35
641.598	-96.94
641.798	-182.95
641.997	970.05
642.197	58.71
642.397	-139.94
642.597	-250.53
642.796	202.07
642.996	324.94
643.196	7.51
643.395	-244.39
643.595	79.19
643.795	-342.69
643.994	-268.97
644.194	-201.38
644.394	148.82
644.593	97.62
644.793	-412.32
644.992	-29.35
645.192	107.86
645.392	-389.8
645.591	-0.68
645.791	-207.53
645.99	189.78
646.19	1.37
646.389	-148.14
646.589	-109.22
646.788	232.79
646.987	247.12
647.187	85.33
647.386	-29.35
647.586	17.75
647.785	245.07
647.984	-107.18
648.184	-180.9
648.383	30.04
648.582	-41.64
648.782	-213.67
648.981	-72.36
649.18	-98.99
649.38	83.28
649.579	-164.52
649.778	-250.53
649.977	216.4
650.177	183.63
650.376	-266.92
650.575	-158.38
650.774	433.49
650.973	-111.27
651.173	-350.89
651.372	-119.46
651.571	130.39
651.77	357.71
651.969	-230.06
652.168	-29.35
652.367	-244.39
652.566	44.37
652.765	-223.91
652.964	109.91
653.163	511.31
653.362	-21.16
653.561	-123.56
653.76	-213.67
653.959	-37.55
654.158	126.29
654.357	40.28
654.556	-174.76
654.755	134.48
654.954	193.87
655.153	-105.13
655.352	-168.62
655.551	329.04
655.749	-94.89
655.948	-137.9
656.147	-29.35
656.346	118.1
656.545	15.7
656.743	-12.97
656.942	-176.81
657.141	68.95
657.34	-154.28
657.538	-160.42
657.737	-109.22
657.936	-70.31
658.135	255.31
658.333	-217.77
658.532	-25.26
658.731	464.21
658.929	240.98
659.128	87.38
659.326	-215.72
659.525	363.86
659.724	15.7
659.922	-389.8
660.121	-256.68
660.319	179.54
660.518	-51.88
660.716	-242.34
660.915	-266.92
661.113	421.2
661.312	-240.3
661.51	93.52
661.709	-334.5
661.907	191.83
662.105	404.82
662.304	-256.68
662.502	-197.29
662.701	326.99
662.899	-2.73
663.097	138.58
663.296	-291.49
663.494	343.38
663.692	449.87
663.891	-283.3
664.089	-266.92
664.287	134.48
664.485	478.54
664.684	-250.53
664.882	-90.79
665.08	89.43
665.278	114
665.476	-318.12
665.675	142.68
665.873	480.59
666.071	306.51
666.269	-152.23
666.467	83.28
666.665	154.96
666.863	21.84
667.061	-58.03
667.259	-127.66
667.457	42.32
667.655	179.54
667.853	-289.45
668.051	-47.79
668.249	-139.94
668.447	175.44
668.645	-252.58
668.843	62.8
669.041	136.53
669.239	-21.16
669.437	-55.98
669.635	-25.26
669.833	-64.17
670.031	228.69
670.229	-25.26
670.426	-62.12
670.624	-53.93
670.822	-53.93
671.02	-228.01
671.218	-84.65
671.415	-158.38
671.613	122.2
671.811	-80.55
672.009	-139.94
672.206	322.9
672.404	103.76
672.602	-2.73
672.799	-0.68
672.997	212.31
673.195	234.83
673.392	-31.4
673.59	-238.25
673.788	204.11
673.985	-406.18
674.183	-111.27
674.38	-135.85
674.578	275.79
674.775	-98.99
674.973	-266.92
675.17	-230.06
675.368	443.73
675.565	238.93
675.763	-260.77
675.96	-88.75
676.158	396.62
676.355	-70.31
676.553	-156.33
676.75	-133.8
676.947	97.62
677.145	-8.87
677.342	5.46
677.539	13.65
677.737	114
677.934	556.36
678.131	93.52
678.329	-230.06
678.526	464.21
678.723	232.79
678.92	-86.7
679.118	-182.95
679.315	-152.23
679.512	372.05
679.709	-45.74
679.906	-123.56
680.104	306.51
680.301	62.8
680.498	-254.63
680.695	-221.86
680.892	-168.62
681.089	-2.73
681.286	-107.18
681.483	-320.17
681.68	265.55
681.877	275.79
682.075	-111.27
682.272	111.96
682.469	216.4
682.665	54.61
682.862	-225.96
683.059	-348.84
683.256	171.35
683.453	152.91
683.65	-92.84
683.847	-123.56
684.044	73.04
684.241	-109.22
684.438	-23.21
684.635	-279.21
684.831	578.89
685.028	580.94
685.225	-193.19
685.422	42.32
685.619	68.95
685.815	103.76
686.012	-64.17
686.209	-103.08
686.405	-187.05
686.602	230.74
686.799	-287.4
686.996	-199.34
687.192	-135.85
687.389	554.32
687.586	-180.9
687.782	-60.07
687.979	396.62
688.175	406.86
688.372	-72.36
688.568	-84.65
688.765	-29.35
688.962	453.97
689.158	-21.16
689.355	-207.53
689.551	265.55
689.748	-96.94
689.944	-19.11
690.14	-340.65
690.337	290.13
690.533	56.66
690.73	124.24
690.926	-41.64
691.123	197.97
691.319	27.99
691.515	-240.3
691.712	-21.16
691.908	290.13
692.104	120.15
692.301	56.66
692.497	-264.87
692.693	314.7
692.889	232.79
693.086	54.61
693.282	-320.17
693.478	83.28
693.674	539.98
693.87	-86.7
694.067	-303.78
694.263	138.58
694.459	60.76
694.655	-43.69
694.851	5.46
695.047	191.83
695.243	249.17
695.439	-49.83
695.635	-215.72
695.831	294.22
696.027	222.55
696.224	-123.56
696.42	195.92
696.615	431.44
696.811	247.12
697.007	-219.82
697.203	-101.03
697.399	218.45
697.595	462.16
697.791	-129.7
697.987	-35.5
698.183	-148.14
698.379	-78.51
698.575	-146.09
698.77	-135.85
698.966	290.13
699.162	400.72
699.358	-90.79
699.554	-103.08
699.749	220.5
699.945	294.22
700.141	34.13
700.337	-27.31
700.532	87.38
700.728	-103.08
700.924	-182.95
701.119	-242.34
701.315	226.64
701.511	-21.16
701.706	-55.98
701.902	-254.63
702.097	152.91
702.293	177.49
702.489	-84.65
702.684	-146.09
702.88	105.81
703.075	25.94
703.271	-25.26
703.466	-283.3
703.662	116.05
703.857	326.99
704.053	-164.52
704.248	-141.99
704.443	249.17
704.639	191.83
704.834	-51.88
705.03	-189.1
705.225	290.13
705.42	359.76
705.616	7.51
705.811	-207.53
706.006	-15.02
706.202	36.18
706.397	54.61
706.592	-217.77
706.787	208.21
706.983	159.06
707.178	138.58
707.373	44.37
707.568	306.51
707.763	335.18
707.959	-109.22
708.154	-187.05
708.349	210.26
708.544	185.68
708.739	189.78
708.934	-244.39
709.129	275.79
709.324	419.15
709.519	-115.37
709.714	-242.34
709.909	380.24
710.104	191.83
710.299	-125.61
710.494	-111.27
710.689	249.17
710.884	226.64
711.079	19.8
711.274	152.91
711.469	212.31
711.664	169.3
711.859	-115.37
712.054	-58.03
712.249	380.24
712.443	370
712.638	-279.21
712.833	-174.76
713.028	79.19
713.223	56.66
713.417	120.15
713.612	-107.18
713.807	265.55
714.002	623.95
714.196	-0.68
714.391	-152.23
714.586	324.94
714.78	146.77
714.975	-47.79
715.17	-168.62
715.364	71
715.559	339.28
715.754	-418.47
715.948	-156.33
716.143	638.28
716.337	152.91
716.532	187.73
716.726	-123.56
716.921	259.41
717.115	560.46
717.31	-244.39
717.504	392.53
717.699	5.46
717.893	324.94
718.088	-225.96
718.282	-266.92
718.476	144.72
718.671	206.16
718.865	-76.46
719.059	-101.03
719.254	97.62
719.448	486.73
719.642	1234.24
719.837	-266.92
720.031	318.8
720.225	361.81
720.419	-107.18
720.614	-78.51
720.808	351.57
721.002	19.8
721.196	-148.14
721.39	-90.79
721.585	347.47
721.779	224.59
721.973	-43.69
722.167	-242.34
722.361	169.3
722.555	404.82
722.749	-98.99
722.943	-66.22
723.137	-119.46
723.331	247.12
723.525	-133.8
723.719	-51.88
723.913	251.22
724.107	419.15
724.301	-215.72
724.495	-45.74
724.689	482.64
724.883	402.77
725.077	-84.65
725.271	-84.65
725.465	384.34
725.659	107.86
725.853	-8.87
726.046	-180.9
726.24	19.8
726.434	355.66
726.628	-117.42
726.822	-21.16
727.015	441.68
727.209	478.54
727.403	-70.31
727.596	-258.73
727.79	304.46
727.984	335.18
728.177	-76.46
728.371	19.8
728.565	367.95
728.758	-166.57
728.952	-150.18
729.146	-135.85
729.339	423.25
729.533	79.19
729.726	-51.88
729.92	-141.99
730.113	396.62
730.307	220.5
730.5	-148.14
730.694	-176.81
730.887	15.7
731.081	226.64
731.274	-127.66
731.468	-62.12
731.661	93.52
731.854	-29.35
732.048	-70.31
732.241	-262.82
732.435	40.28
732.628	52.56
732.821	-90.79
733.014	-262.82
733.208	-94.89
733.401	257.36
733.594	-72.36
733.788	-107.18
733.981	511.31
734.174	103.76
734.367	-115.37
734.56	-31.4
734.754	380.24
734.947	111.96
735.14	-176.81
735.333	-96.94
735.526	222.55
735.719	-82.6
735.912	-207.53
736.105	-185
736.298	212.31
736.491	23.89
736.684	-111.27
736.877	-199.34
737.07	240.98
737.263	361.81
737.456	-148.14
737.649	-199.34
737.842	56.66
738.035	116.05
738.228	-27.31
738.421	30.04
738.614	376.14
738.807	290.13
739	-238.25
739.192	-160.42
739.385	236.88
739.578	363.86
739.771	163.15
739.964	-115.37
740.156	175.44
740.349	17.75
740.542	-17.07
740.735	-240.3
740.927	-109.22
741.12	-131.75
741.313	-250.53
741.505	42.32
741.698	167.25
741.891	298.32
742.083	60.76
742.276	-96.94
742.468	175.44
742.661	11.61
742.854	-205.48
743.046	-68.27
743.239	517.45
743.431	107.86
743.624	44.37
743.816	-309.93
744.009	73.04
744.201	181.59
744.393	60.76
744.586	-256.68
744.778	400.72
744.971	136.53
745.163	-82.6
745.355	58.71
745.548	87.38
745.74	38.23
745.932	-60.07
746.125	-201.38
746.317	599.37
746.509	148.82
746.702	-154.28
746.894	-53.93
747.086	181.59
747.278	286.03
747.471	122.2
747.663	-101.03
747.855	140.63
748.047	576.84
748.239	-174.76
748.431	-105.13
748.623	537.93
748.815	490.83
749.008	-187.05
749.2	-127.66
749.392	263.51
749.584	185.68
749.776	-111.27
749.968	27.99
750.16	593.23
750.352	83.28
750.544	-125.61
750.736	-230.06
750.928	210.26
751.12	116.05
751.311	-58.03
751.503	-33.45
751.695	331.09
751.887	159.06
752.079	-262.82
752.271	-49.83
752.463	855.37
752.654	370
752.846	-154.28
753.038	-64.17
753.23	-17.07
753.421	275.79
753.613	-29.35
753.805	120.15
753.997	345.42
754.188	273.75
754.38	-105.13
754.572	-131.75
754.763	19.8
754.955	322.9
755.146	-60.07
755.338	-27.31
755.53	191.83
755.721	136.53
755.913	-295.59
756.104	-201.38
756.296	105.81
756.487	343.38
756.679	-205.48
756.87	-94.89
757.062	85.33
757.253	157.01
757.445	-133.8
757.636	21.84
757.827	109.91
758.019	658.76
758.21	-148.14
758.401	-125.61
758.593	556.36
758.784	390.48
758.975	-318.12
759.167	-254.63
759.358	167.25
759.549	456.01
759.74	-82.6
759.932	-148.14
760.123	462.16
760.314	3.41
760.505	77.14
760.696	-90.79
760.888	552.27
761.079	111.96
761.27	-123.56
761.461	-244.39
761.652	474.45
761.843	48.47
762.034	-66.22
762.225	175.44
762.416	93.52
762.607	159.06
762.798	-96.94
762.989	-148.14
763.18	847.18
763.371	11.61
763.562	-125.61
763.753	-86.7
763.944	343.38
764.135	343.38
764.326	19.8
764.517	-94.89
764.708	204.11
764.899	281.94
765.089	-152.23
765.28	-309.93
765.471	234.83
765.662	290.13
765.853	-60.07
766.043	-217.77
766.234	392.53
766.425	388.43
766.615	-123.56
766.806	-260.77
766.997	421.2
767.187	165.2
767.378	-252.58
767.569	-240.3
767.759	277.84
767.95	150.87
768.141	15.7
768.331	-191.14
768.522	87.38
768.712	281.94
768.903	-160.42
769.093	-234.15
769.284	519.5
769.474	144.72
769.665	-352.93
769.855	-303.78
770.046	269.65
770.236	99.67
770.426	73.04
770.617	-148.14
770.807	326.99
770.998	68.95
771.188	85.33
771.378	-168.62
771.569	292.18
771.759	275.79
771.949	-172.71
772.139	-412.32
772.33	261.46
772.52	453.97
772.71	-199.34
772.9	-285.35
773.09	564.56
773.281	503.12
773.471	-256.68
773.661	-109.22
773.851	316.75
774.041	77.14
774.231	-197.29
774.421	97.62
774.611	505.17
774.802	183.63
774.992	-74.41
775.182	-203.43
775.372	202.07
775.562	349.52
775.752	-154.28
775.942	-82.6
776.131	410.96
776.321	253.27
776.511	-144.04
776.701	-230.06
776.891	398.67
777.081	-113.32
777.271	-17.07
777.461	-174.76
777.651	331.09
777.84	370
778.03	-8.87
778.22	-123.56
778.41	425.29
778.599	-29.35
778.789	-74.41
778.979	-154.28
779.169	134.48
779.358	75.09
779.548	189.78
779.738	-236.2
779.927	214.35
780.117	-21.16
780.307	-135.85
780.496	-373.41
780.686	322.9
780.875	486.73
781.065	-125.61
781.254	-164.52
781.444	216.4
781.633	144.72
781.823	-176.81
782.012	-164.52
782.202	64.85
782.391	150.87
782.581	-185
782.77	15.7
782.96	363.86
783.149	128.34
783.338	-119.46
783.528	-363.17
783.717	355.66
783.906	337.23
784.096	66.9
784.285	-213.67
784.474	152.91
784.663	-98.99
784.853	-60.07
785.042	-164.52
785.231	-19.11
785.42	365.9
785.61	-10.92
785.799	-217.77
785.988	23.89
786.177	73.04
786.366	-107.18
786.555	120.15
786.744	367.95
786.933	73.04
787.122	-271.01
787.312	-275.11
787.501	38.23
787.69	171.35
787.879	-139.94
788.068	-185
788.257	-201.38
788.445	-4.78
788.634	-49.83
788.823	-254.63
789.012	824.65
789.201	486.73
789.39	-12.97
789.579	-246.44
789.768	146.77
789.957	120.15
790.145	-148.14
790.334	-260.77
790.523	-15.02
790.712	46.42
790.9	11.61
791.089	-250.53
791.278	349.52
791.467	187.73
791.655	208.21
791.844	308.56
792.033	23.89
792.221	48.47
792.41	-189.1
792.599	-176.81
792.787	294.22
792.976	386.38
793.164	-203.43
793.353	-205.48
793.541	390.48
793.73	224.59
793.918	-101.03
794.107	-148.14
794.295	107.86
794.484	122.2
794.672	-119.46
794.861	-103.08
795.049	310.61
795.238	535.89
795.426	-230.06
795.614	-72.36
795.803	183.63
795.991	458.06
796.179	-115.37
796.368	-168.62
796.556	400.72
796.744	-189.1
796.932	-248.49
797.121	-324.26
797.309	109.91
797.497	326.99
797.685	-70.31
797.874	-121.51
798.062	126.29
798.25	406.86
798.438	-262.82
798.626	-189.1
798.814	191.83
799.002	712.01
799.19	79.19
799.378	-96.94
799.566	322.9
799.755	492.88
799.943	118.1
800.131	-131.75
800.318	177.49
800.506	243.03
800.694	-115.37
800.882	-43.69
801.07	443.73
801.258	126.29
801.446	-168.62
801.634	-160.42
801.822	87.38
802.01	177.49
802.197	-144.04
802.385	-8.87
802.573	159.06
802.761	-62.12
802.949	-66.22
803.136	-271.01
803.324	404.82
803.512	114
803.699	-49.83
803.887	-397.99
804.075	398.67
804.262	32.08
804.45	-250.53
804.638	-43.69
804.825	-105.13
805.013	13.65
805.201	-103.08
805.388	-250.53
805.576	-19.11
805.763	525.65
805.951	-152.23
806.138	32.08
806.326	496.97
806.513	249.17
806.701	-129.7
806.888	-230.06
807.075	191.83
807.263	609.61
807.45	-279.21
807.638	-8.87
807.825	576.84
808.012	363.86
808.2	-72.36
808.387	95.57
808.574	273.75
808.761	453.97
808.949	-164.52
809.136	-21.16
809.323	-58.03
809.51	-74.41
809.698	95.57
809.885	122.2
810.072	146.77
810.259	367.95
810.446	-113.32
810.633	-123.56
810.82	357.71
811.008	505.17
811.195	-10.92
811.382	-137.9
811.569	97.62
811.756	-131.75
811.943	-68.27
812.13	-182.95
812.317	-82.6
812.504	54.61
812.691	-86.7
812.878	-47.79
813.064	507.21
813.251	91.48
813.438	-217.77
813.625	48.47
813.812	79.19
813.999	40.28
814.186	-33.45
814.372	-109.22
814.559	140.63
814.746	453.97
814.933	-39.59
815.12	13.65
815.306	34.13
815.493	-27.31
815.68	-158.38
815.866	-66.22
816.053	363.86
816.24	564.56
816.426	-29.35
816.613	-223.91
816.799	347.47
816.986	425.29
817.173	-84.65
817.359	-203.43
817.546	169.3
817.732	-125.61
817.919	-332.45
818.105	-37.55
818.292	48.47
818.478	249.17
818.665	-58.03
818.851	-156.33
819.037	574.8
819.224	118.1
819.41	-262.82
819.597	-283.3
819.783	470.35
819.969	267.6
820.156	-66.22
820.342	-373.41
820.528	849.22
820.714	83.28
820.901	167.25
821.087	-154.28
821.273	499.02
821.459	7.51
821.646	-275.11
821.832	-250.53
822.018	163.15
822.204	204.11
822.39	-115.37
822.576	-197.29
822.762	212.31
822.948	197.97
823.134	52.56
823.32	-78.51
823.507	-164.52
823.693	238.93
823.879	306.51
824.065	-64.17
824.25	126.29
824.436	-117.42
824.622	-176.81
824.808	-201.38
824.994	7.51
825.18	-127.66
825.366	-193.19
825.552	-189.1
825.738	136.53
825.923	372.05
826.109	60.76
826.295	-158.38
826.481	-68.27
826.667	77.14
826.852	15.7
827.038	-205.48
827.224	296.27
827.409	537.93
827.595	-266.92
827.781	89.43
827.966	347.47
828.152	339.28
828.338	-86.7
828.523	-301.73
828.709	-51.88
828.894	488.78
829.08	-113.32
829.266	-209.58
829.451	-33.45
829.637	279.89
829.822	-19.11
830.008	-182.95
830.193	279.89
830.378	462.16
830.564	-107.18
830.749	-260.77
830.935	281.94
831.12	449.87
831.305	-199.34
831.491	-107.18
831.676	-111.27
831.861	300.37
832.047	-78.51
832.232	-238.25
832.417	349.52
832.602	148.82
832.788	-213.67
832.973	-236.2
833.158	111.96
833.343	161.11
833.528	-51.88
833.714	-86.7
833.899	312.66
834.084	572.75
834.269	40.28
834.454	-148.14
834.639	367.95
834.824	97.62
835.009	36.18
835.194	-15.02
835.379	318.8
835.564	509.26
835.749	-2.73
835.934	-203.43
836.119	343.38
836.304	200.02
836.489	-123.56
836.674	163.15
836.859	-66.22
837.044	427.34
837.228	-135.85
837.413	-289.45
837.598	249.17
837.783	370
837.968	-88.75
838.152	-234.15
838.337	-295.59
838.522	355.66
838.707	298.32
838.891	66.9
839.076	247.12
839.261	392.53
839.445	-129.7
839.63	3.41
839.815	560.46
839.999	62.8
840.184	-146.09
840.368	-72.36
840.553	359.76
840.737	343.38
840.922	-201.38
841.106	-293.54
841.291	-47.79
841.475	126.29
841.66	-107.18
841.844	-94.89
842.029	867.66
842.213	-86.7
842.397	-88.75
842.582	-303.78
842.766	453.97
842.951	314.7
843.135	-135.85
843.319	-152.23
843.504	214.35
843.688	382.29
843.872	-303.78
844.056	-217.77
844.241	261.46
844.425	34.13
844.609	97.62
844.793	-408.23
844.977	326.99
845.161	220.5
845.346	-250.53
845.53	-105.13
845.714	150.87
845.898	513.36
846.082	-234.15
846.266	-199.34
846.45	154.96
846.634	253.27
846.818	-123.56
847.002	23.89
847.186	251.22
847.37	-86.7
847.554	-195.24
847.738	13.65
847.922	281.94
848.106	265.55
848.29	-230.06
848.473	-152.23
848.657	300.37
848.841	95.57
849.025	-117.42
849.209	-242.34
849.392	361.81
849.576	79.19
849.76	-271.01
849.944	-2.73
850.127	431.44
850.311	-135.85
850.495	-221.86
850.678	-283.3
850.862	466.25
851.046	437.58
851.229	142.68
851.413	-250.53
851.596	206.16
851.78	111.96
851.964	38.23
852.147	-68.27
852.331	881.99
852.514	470.35
852.698	1.37
852.881	-221.86
853.065	308.56
853.248	216.4
853.431	36.18
853.615	46.42
853.798	675.15
853.982	202.07
854.165	73.04
854.348	-144.04
854.532	-154.28
854.715	-23.21
854.898	-127.66
855.081	-64.17
855.265	417.1
855.448	646.48
855.631	-137.9
855.814	-92.84
855.997	429.39
856.181	89.43
856.364	-62.12
856.547	-291.49
856.73	212.31
856.913	273.75
857.096	-244.39
857.279	-80.55
857.462	89.43
857.645	388.43
857.828	-58.03
858.011	58.71
858.194	38.23
858.377	421.2
858.56	-330.41
858.743	-4.78
858.926	7.51
859.109	300.37
859.292	-111.27
859.475	-275.11
859.658	464.21
859.841	300.37
860.023	-275.11
860.206	-191.14
860.389	132.44
860.572	527.69
860.755	-53.93
860.937	-109.22
861.12	99.67
861.303	204.11
861.486	-8.87
861.668	-127.66
861.851	349.52
862.034	261.46
862.216	36.18
862.399	-215.72
862.581	316.75
862.764	585.04
862.947	-4.78
863.129	-135.85
863.312	-66.22
863.494	572.75
863.677	220.5
863.859	-275.11
864.042	357.71
864.224	453.97
864.406	15.7
864.589	-172.71
864.771	159.06
864.954	-84.65
865.136	-125.61
865.318	-357.03
865.501	343.38
865.683	-344.74
865.865	-111.27
866.048	-123.56
866.23	267.6
866.412	224.59
866.594	-219.82
866.777	44.37
866.959	384.34
867.141	36.18
867.323	118.1
867.505	36.18
867.687	152.91
867.869	222.55
868.052	-68.27
868.234	-150.18
868.416	144.72
868.598	415.05
868.78	-109.22
868.962	-223.91
869.144	394.58
869.326	296.27
869.508	-113.32
869.69	-123.56
869.872	-21.16
870.054	425.29
870.236	-266.92
870.417	-111.27
870.599	122.2
870.781	513.36
870.963	58.71
871.145	-139.94
871.327	-113.32
871.508	390.48
871.69	-115.37
871.872	-66.22
872.054	81.24
872.235	286.03
872.417	-10.92
872.599	-160.42
872.78	568.65
872.962	154.96
873.144	-301.73
873.325	-135.85
873.507	519.5
873.689	245.07
873.87	-191.14
874.052	77.14
874.233	161.11
874.415	439.63
874.596	-109.22
874.778	-141.99
874.959	187.73
875.141	361.81
875.322	-33.45
875.503	-191.14
875.685	267.6
875.866	-260.77
876.048	-223.91
876.229	-148.14
876.41	167.25
876.592	253.27
876.773	-127.66
876.954	-246.44
877.136	431.44
877.317	146.77
877.498	-307.88
877.679	-111.27
877.86	257.36
878.042	142.68
878.223	-131.75
878.404	169.3
878.585	298.32
878.766	484.69
878.947	157.01
879.128	75.09
879.309	339.28
879.49	349.52
879.672	-49.83
879.853	-21.16
880.034	-39.59
880.215	58.71
880.396	11.61
880.576	-152.23
880.757	-37.55
880.938	394.58
881.119	-182.95
881.3	-185
881.481	1.37
881.662	988.49
881.843	-236.2
882.023	-250.53
882.204	245.07
882.385	109.91
882.566	-199.34
882.747	-252.58
882.927	136.53
883.108	187.73
883.289	-252.58
883.469	132.44
883.65	-72.36
883.831	200.02
884.011	52.56
884.192	-135.85
884.373	435.53
884.553	191.83
884.734	77.14
884.914	144.72
885.095	916.81
885.275	437.58
885.456	214.35
885.636	-279.21
885.817	64.85
885.997	71
886.178	-211.62
886.358	-37.55
886.538	163.15
886.719	953.67
886.899	-129.7
887.08	23.89
887.26	421.2
887.44	-84.65
887.621	-207.53
887.801	-19.11
887.981	652.62
888.161	349.52
888.342	-88.75
888.522	-78.51
888.702	351.57
888.882	445.77
889.062	-17.07
889.242	-266.92
889.423	562.51
889.603	277.84
889.783	-21.16
889.963	-135.85
890.143	314.7
890.323	503.12
890.503	-170.66
890.683	-127.66
890.863	148.82
891.043	232.79
891.223	21.84
891.403	132.44
891.583	105.81
891.763	273.75
891.943	-49.83
892.122	-176.81
892.302	136.53
892.482	60.76
892.662	-6.83
892.842	-144.04
893.022	197.97
893.201	-4.78
893.381	15.7
893.561	-127.66
893.741	238.93
893.92	232.79
894.1	-4.78
894.28	-90.79
894.459	361.81
894.639	265.55
894.819	-166.57
894.998	30.04
895.178	200.02
895.357	326.99
895.537	-6.83
895.716	-316.07
895.896	134.48
896.075	505.17
896.255	-43.69
896.434	-316.07
896.614	427.34
896.793	478.54
896.973	50.52
897.152	-62.12
897.331	232.79
897.511	367.95
897.69	-244.39
897.87	-19.11
898.049	380.24
898.228	204.11
898.407	50.52
898.587	36.18
898.766	-37.55
898.945	296.27
899.124	134.48
899.304	42.32
899.483	400.72
899.662	599.37
899.841	-125.61
900.02	-86.7
900.199	517.45
900.378	251.22
900.557	-113.32
900.737	-230.06
900.916	298.32
901.095	351.57
901.274	195.92
901.453	-135.85
901.632	42.32
901.811	-25.26
901.989	-90.79
902.168	-193.19
902.347	372.05
902.526	-53.93
902.705	-115.37
902.884	34.13
903.063	501.07
903.242	548.17
903.42	-166.57
903.599	52.56
903.778	410.96
903.957	544.08
904.135	64.85
904.314	34.13
904.493	150.87
904.672	302.42
904.85	-19.11
905.029	-187.05
905.207	230.74
905.386	927.05
905.565	-139.94
905.743	-182.95
905.922	85.33
906.1	378.19
906.279	-207.53
906.457	-80.55
906.636	-29.35
906.814	222.55
906.993	-98.99
907.171	-86.7
907.35	372.05
907.528	353.62
907.707	138.58
907.885	-152.23
908.063	601.42
908.242	-37.55
908.42	-160.42
908.598	-266.92
908.777	423.25
908.955	32.08
909.133	-29.35
909.311	-135.85
909.49	95.57
909.668	163.15
909.846	-39.59
910.024	-238.25
910.202	171.35
910.38	294.22
910.559	-228.01
910.737	-223.91
910.915	281.94
911.093	191.83
911.271	-12.97
911.449	101.72
911.627	326.99
911.805	724.3
911.983	-119.46
912.161	-84.65
912.339	273.75
912.517	449.87
912.695	56.66
912.872	-21.16
913.05	-49.83
913.228	281.94
913.406	-35.5
913.584	-111.27
913.762	347.47
913.939	64.85
914.117	-127.66
914.295	-168.62
914.473	335.18
914.65	306.51
914.828	-66.22
915.006	-141.99
915.184	-84.65
915.361	277.84
915.539	66.9
915.716	197.97
915.894	245.07
916.072	380.24
916.249	200.02
916.427	111.96
916.604	-88.75
916.782	277.84
916.959	-156.33
917.137	-33.45
917.314	255.31
917.492	355.66
917.669	40.28
917.847	48.47
918.024	326.99
918.201	68.95
918.379	91.48
918.556	44.37
918.733	370
918.911	167.25
919.088	195.92
919.265	-109.22
919.442	318.8
919.62	71
919.797	-98.99
919.974	-185
920.151	183.63
920.328	218.45
920.506	-60.07
920.683	169.3
920.86	-45.74
921.037	13.65
921.214	56.66
921.391	-94.89
921.568	357.71
921.745	-4.78
921.922	-88.75
922.099	-58.03
922.276	509.26
922.453	302.42
922.63	-123.56
922.807	286.03
922.984	269.65
923.161	27.99
923.338	-43.69
923.514	-119.46
923.691	167.25
923.868	302.42
924.045	-92.84
924.222	-189.1
924.399	277.84
924.575	390.48
924.752	5.46
924.929	-33.45
925.105	392.53
925.282	-90.79
925.459	-76.46
925.635	-37.55
925.812	200.02
925.989	-17.07
926.165	56.66
926.342	-158.38
926.518	-33.45
926.695	275.79
926.871	-92.84
927.048	-213.67
927.224	316.75
927.401	79.19
927.577	36.18
927.754	-193.19
927.93	472.4
928.107	374.1
928.283	-201.38
928.459	38.23
928.636	402.77
928.812	120.15
928.988	-107.18
929.165	-193.19
929.341	195.92
929.517	228.69
929.693	279.89
929.87	-336.55
930.046	290.13
930.222	124.24
930.398	-127.66
930.574	142.68
930.751	183.63
930.927	81.24
931.103	-137.9
931.279	85.33
931.455	17.75
931.631	202.07
931.807	-170.66
931.983	-115.37
932.159	-160.42
932.335	236.88
932.511	34.13
932.687	19.8
932.863	257.36
933.039	253.27
933.215	-174.76
933.391	-203.43
933.566	87.38
933.742	175.44
933.918	1.37
934.094	-250.53
934.27	259.41
934.445	240.98
934.621	25.94
934.797	-90.79
934.973	458.06
935.148	240.98
935.324	-178.86
935.5	-289.45
935.675	443.73
935.851	222.55
936.027	-123.56
936.202	27.99
936.378	189.78
936.553	177.49
936.729	290.13
936.904	-88.75
937.08	-72.36
937.255	-15.02
937.431	-133.8
937.606	-152.23
937.782	144.72
937.957	175.44
938.133	-17.07
938.308	-156.33
938.483	138.58
938.659	5.46
938.834	23.89
939.009	-193.19
939.185	136.53
939.36	17.75
939.535	-367.27
939.71	19.8
939.886	404.82
940.061	318.8
940.236	167.25
940.411	-37.55
940.586	275.79
940.761	347.47
940.937	-80.55
941.112	-62.12
941.287	146.77
941.462	232.79
941.637	-266.92
941.812	7.51
941.987	271.7
942.162	122.2
942.337	-15.02
942.512	-15.02
942.687	345.42
942.862	292.18
943.037	-187.05
943.212	-285.35
943.386	7.51
943.561	193.87
943.736	83.28
943.911	240.98
944.086	263.51
944.26	181.59
944.435	-41.64
944.61	19.8
944.785	429.39
944.959	599.37
945.134	-88.75
945.309	-152.23
945.483	-31.4
945.658	464.21
945.833	-332.45
946.007	-221.86
946.182	546.12
946.357	-156.33
946.531	-152.23
946.706	-144.04
946.88	-203.43
947.055	64.85
947.229	-135.85
947.404	-178.86
947.578	357.71
947.752	-62.12
947.927	-260.77
948.101	-268.97
948.276	142.68
948.45	204.11
948.624	32.08
948.799	-189.1
948.973	261.46
949.147	-117.42
949.321	7.51
949.496	-92.84
949.67	351.57
949.844	13.65
950.018	-123.56
950.193	-150.18
950.367	587.08
950.541	-12.97
950.715	19.8
950.889	-10.92
951.063	3.41
951.237	333.14
951.411	-336.55
951.585	-285.35
951.759	218.45
951.933	-6.83
952.107	-189.1
952.281	114
952.455	482.64
952.629	349.52
952.803	-199.34
952.977	-156.33
953.151	210.26
953.325	208.21
953.499	38.23
953.672	-248.49
953.846	-55.98
954.02	19.8
954.194	-225.96
954.368	-191.14
954.541	175.44
954.715	-19.11
954.889	-17.07
955.062	-225.96
955.236	64.85
955.41	71
955.583	-70.31
955.757	-223.91
955.93	-31.4
956.104	-111.27
956.278	-123.56
956.451	-117.42
956.625	257.36
956.798	548.17
956.972	97.62
957.145	-285.35
957.319	103.76
957.492	11.61
957.665	19.8
957.839	-121.51
958.012	171.35
958.185	-31.4
958.359	-82.6
958.532	44.37
958.705	193.87
958.879	118.1
959.052	-144.04
959.225	-266.92
959.398	85.33
959.572	169.3
959.745	-209.58
959.918	-111.27
960.091	36.18
960.264	175.44
960.438	-266.92
960.611	-211.62
960.784	310.61
960.957	-4.78
961.13	249.17
961.303	-217.77
961.476	77.14
961.649	259.41
961.822	-262.82
961.995	-45.74
962.168	130.39
962.341	134.48
962.514	-170.66
962.686	-125.61
962.859	116.05
963.032	157.01
963.205	-148.14
963.378	-254.63
963.551	283.99
963.723	111.96
963.896	68.95
964.069	52.56
964.242	3.41
964.414	335.18
964.587	-58.03
964.76	-51.88
964.932	91.48
965.105	40.28
965.278	-156.33
965.45	-156.33
965.623	116.05
965.795	202.07
965.968	-152.23
966.14	-156.33
966.313	1.37
966.485	114
966.658	-158.38
966.83	-160.42
967.003	396.62
967.175	292.18
967.348	-115.37
967.52	-82.6
967.692	529.74
967.865	179.54
968.037	-74.41
968.209	109.91
968.382	42.32
968.554	238.93
968.726	-123.56
968.898	-197.29
969.071	134.48
969.243	273.75
969.415	-82.6
969.587	-37.55
969.759	621.9
969.932	271.7
970.104	-62.12
970.276	-426.66
970.448	27.99
970.62	38.23
970.792	-15.02
970.964	-58.03
971.136	568.65
971.308	290.13
971.48	-182.95
971.652	-180.9
971.824	435.53
971.996	66.9
972.168	-35.5
972.339	-109.22
972.511	335.18
972.683	-25.26
972.855	195.92
973.027	-119.46
973.199	34.13
973.37	347.47
973.542	42.32
973.714	36.18
973.886	91.48
974.057	382.29
974.229	-205.48
974.401	-182.95
974.572	-98.99
974.744	-324.26
974.915	-162.47
975.087	-205.48
975.259	451.92
975.43	-74.41
975.602	-115.37
975.773	-258.73
975.945	-39.59
976.116	175.44
976.288	-344.74
976.459	-2.73
976.63	91.48
976.802	253.27
976.973	-158.38
977.145	3.41
977.316	562.51
977.487	552.27
977.659	36.18
977.83	-21.16
978.001	453.97
978.172	200.02
978.344	-205.48
978.515	-176.81
978.686	-60.07
978.857	449.87
979.028	-47.79
979.2	-160.42
979.371	329.04
979.542	105.81
979.713	17.75
979.884	-477.86
980.055	-96.94
980.226	-2.73
980.397	-213.67
980.568	-203.43
980.739	318.8
980.91	27.99
981.081	11.61
981.252	-101.03
981.423	212.31
981.594	347.47
981.765	-213.67
981.936	-80.55
982.106	97.62
982.277	349.52
982.448	-213.67
982.619	23.89
982.79	64.85
982.96	351.57
983.131	-86.7
983.302	-248.49
983.472	64.85
983.643	202.07
983.814	-4.78
983.984	-131.75
984.155	85.33
984.326	365.9
984.496	-66.22
984.667	-86.7
984.837	-94.89
985.008	380.24
985.178	60.76
985.349	-37.55
985.519	62.8
985.69	-45.74
985.86	-58.03
986.031	-160.42
986.201	148.82
986.371	152.91
986.542	-228.01
986.712	-402.08
986.882	236.88
987.053	146.77
987.223	-201.38
987.393	-15.02
987.563	19.8
987.734	226.64
987.904	228.69
988.074	-189.1
988.244	138.58
988.414	-37.55
988.585	-133.8
988.755	-41.64
988.925	34.13
989.095	433.49
989.265	-223.91
989.435	-47.79
989.605	206.16
989.775	240.98
989.945	132.44
990.115	-217.77
990.285	60.76
990.455	107.86
990.625	-123.56
990.795	-170.66
990.965	386.38
991.134	-221.86
991.304	-135.85
991.474	-135.85
991.644	93.52
991.814	482.64
991.984	-228.01
992.153	-166.57
992.323	1.37
992.493	85.33
992.662	-449.19
992.832	19.8
993.002	142.68
993.171	157.01
993.341	-291.49
993.511	15.7
993.68	-25.26
993.85	245.07
994.019	-324.26
994.189	-289.45
994.358	81.24
994.528	-76.46
994.697	-385.7
994.867	-309.93
995.036	255.31
995.206	19.8
995.375	-266.92
995.544	-72.36
995.714	30.04
995.883	-80.55
996.052	-29.35
996.222	-432.8
996.391	576.84
996.56	93.52
996.73	-240.3
996.899	-365.22
997.068	437.58
997.237	54.61
997.406	-172.71
997.576	-375.46
997.745	179.54
997.914	232.79
998.083	-385.7
998.252	-264.87
998.421	62.8
998.59	-117.42
998.759	-297.64
998.928	-379.56
999.097	378.19
999.266	159.06
999.435	-41.64
999.604	-395.94
999.773	539.98
999.942	-88.75
1000.111	-324.26
1000.28	-412.32
1000.448	-127.66
1000.617	-86.7
1000.786	-43.69
1000.955	-332.45
1001.124	171.35
1001.292	752.97
1001.461	-250.53
1001.63	-254.63
1001.798	453.97
1001.967	337.23
1002.136	-385.7
1002.304	-299.69
1002.473	118.1
1002.642	191.83
1002.81	-238.25
1002.979	-324.26
1003.147	257.36
1003.316	664.91
1003.484	-336.55
1003.653	-234.15
1003.821	363.86
1003.99	-19.11
1004.158	-94.89
1004.327	-203.43
1004.495	85.33
1004.663	-185
1004.832	-103.08
1005	-344.74
1005.168	175.44
1005.337	165.2
1005.505	-367.27
1005.673	-113.32
1005.842	161.11
1006.01	142.68
1006.178	-350.89
1006.346	-336.55
1006.514	136.53
1006.683	283.99
1006.851	-316.07
1007.019	-344.74
1007.187	-152.23
1007.355	-391.84
1007.523	-481.96
1007.691	-311.97
1007.859	-248.49
1008.027	245.07
1008.195	-287.4
1008.363	-397.99
1008.531	189.78
1008.699	-113.32
1008.867	-381.6
1009.035	-346.79
1009.203	331.09
1009.37	62.8
1009.538	-262.82
1009.706	105.81
1009.874	148.82
1010.042	-47.79
1010.209	-357.03
1010.377	-279.21
1010.545	286.03
1010.713	56.66
1010.88	-262.82
1011.048	-305.83
1011.216	-76.46
1011.383	390.48
1011.551	-254.63
1011.718	-408.23
1011.886	273.75
1012.054	138.58
1012.221	-316.07
1012.389	-324.26
1012.556	-17.07
1012.724	496.97
1012.891	-150.18
1013.058	-430.76
1013.226	183.63
1013.393	226.64
1013.561	-461.48
1013.728	-449.19
1013.895	273.75
1014.063	138.58
1014.23	-397.99
1014.397	-307.88
1014.565	226.64
1014.732	-4.78
1014.899	-387.75
1015.066	-385.7
1015.233	89.43
1015.401	220.5
1015.568	-275.11
1015.735	-172.71
1015.902	118.1
1016.069	212.31
1016.236	-283.3
1016.403	-338.6
1016.57	-146.09
1016.737	230.74
1016.904	-252.58
1017.071	-400.04
1017.238	-115.37
1017.405	294.22
1017.572	-217.77
1017.739	-96.94
1017.906	77.14
1018.073	263.51
1018.24	-377.51
1018.407	-223.91
1018.573	302.42
1018.74	79.19
1018.907	-271.01
1019.074	-443.04
1019.241	304.46
1019.407	103.76
1019.574	-307.88
1019.741	-350.89
1019.907	161.11
1020.074	259.41
1020.241	-496.29
1020.407	-400.04
1020.574	187.73
1020.74	161.11
1020.907	-307.88
1021.073	-328.36
1021.24	566.6
1021.406	372.05
1021.573	-369.32
1021.739	-373.41
1021.906	200.02
1022.072	73.04
1022.239	-207.53
1022.405	-281.25
1022.571	81.24
1022.738	-115.37
1022.904	-314.02
1023.07	-215.72
1023.237	152.91
1023.403	341.33
1023.569	-299.69
1023.735	-295.59
1023.902	146.77
1024.068	120.15
1024.234	-410.28
1024.4	-248.49
1024.566	175.44
1024.732	195.92
1024.898	-252.58
1025.065	-469.67
1025.231	226.64
1025.397	-17.07
1025.563	-314.02
1025.729	-330.41
1025.895	-332.45
1026.061	-94.89
1026.227	-426.66
1026.392	-236.2
1026.558	286.03
1026.724	177.49
1026.89	-311.97
1027.056	-219.82
1027.222	140.63
1027.388	-27.31
1027.553	-242.34
1027.719	-350.89
1027.885	505.17
1028.051	238.93
1028.216	-387.75
1028.382	-193.19
1028.548	277.84
1028.713	-72.36
1028.879	-381.6
1029.045	-164.52
1029.21	388.43
1029.376	288.08
1029.541	-189.1
1029.707	-205.48
1029.873	173.39
1030.038	312.66
1030.204	-297.64
1030.369	-232.1
1030.534	343.38
1030.7	13.65
1030.865	-299.69
1031.031	-330.41
1031.196	251.22
1031.361	159.06
1031.527	-250.53
1031.692	-402.08
1031.857	-246.44
1032.023	253.27
1032.188	-385.7
1032.353	-275.11
1032.518	437.58
1032.684	109.91
1032.849	-436.9
1033.014	-256.68
1033.179	286.03
1033.344	232.79
1033.509	-248.49
1033.674	-295.59
1033.839	224.59
1034.004	267.6
1034.17	-283.3
1034.335	-350.89
1034.5	-2.73
1034.664	-33.45
1034.829	-379.56
1034.994	-277.16
1035.159	191.83
1035.324	200.02
1035.489	-219.82
1035.654	-322.21
1035.819	443.73
1035.984	126.29
1036.148	-299.69
1036.313	-266.92
1036.478	351.57
1036.643	107.86
1036.807	-365.22
1036.972	-287.4
1037.137	406.86
1037.301	132.44
1037.466	-422.56
1037.631	-166.57
1037.795	453.97
1037.96	210.26
1038.124	-94.89
1038.289	-402.08
1038.454	224.59
1038.618	204.11
1038.783	-213.67
1038.947	-275.11
1039.111	122.2
1039.276	-17.07
1039.44	-256.68
1039.605	146.77
1039.769	56.66
1039.933	128.34
1040.098	-170.66
1040.262	-76.46
1040.426	269.65
1040.591	218.45
1040.755	-240.3
1040.919	-250.53
1041.083	204.11
1041.248	64.85
1041.412	-430.76
1041.576	-240.3
1041.74	130.39
1041.904	355.66
1042.068	-322.21
1042.232	-201.38
1042.397	347.47
1042.561	134.48
1042.725	-508.58
1042.889	-111.27
1043.053	243.03
1043.217	245.07
1043.381	-160.42
1043.544	-387.75
1043.708	365.9
1043.872	-78.51
1044.036	-496.29
1044.2	-379.56
1044.364	515.41
1044.528	523.6
1044.691	2608.43
1044.855	-246.44
1045.019	273.75
1045.183	251.22
1045.346	-232.1
1045.51	-266.92
1045.674	140.63
1045.837	269.65
1046.001	-250.53
1046.165	-283.3
1046.328	699.72
1046.492	271.7
1046.655	-105.13
1046.819	-176.81
1046.983	142.68
1047.146	318.8
1047.31	-207.53
1047.473	-369.32
1047.636	138.58
1047.8	23.89
1047.963	-170.66
1048.127	-297.64
1048.29	62.8
